SpectraSuite Data File
++++++++++++++++++++++++++++++++++++
Date: Wed Jan 02 13:59:06 EST 2013
User: James
Dark Spectrum Present: No
Reference Spectrum Present: No
Number of Sampled Component Spectra: 1
Spectrometers: USB4C01400
Integration Time (usec): 100000 (USB4C01400)
Spectra Averaged: 1 (USB4C01400)
Boxcar Smoothing: 0 (USB4C01400)
Correct for Electrical Dark: No (USB4C01400)
Strobe/Lamp Enabled: No (USB4C01400)
Correct for Detector Non-linearity: No (USB4C01400)
Correct for Stray Light: No (USB4C01400)
Number of Pixels in Processed Spectrum: 3648
>>>>>Begin Processed Spectral Data<<<<<
345.93	1083.38
346.15	1083.38
346.36	1083.38
346.58	1087.47
346.79	1128.43
347.01	1269.74
347.22	1247.21
347.44	1247.21
347.65	1202.16
347.87	1304.56
348.08	1220.59
348.30	1230.83
348.51	1140.72
348.73	1318.89
348.94	1255.40
349.16	1269.74
349.37	1255.40
349.58	1255.40
349.80	1337.32
350.01	1206.25
350.23	1224.69
350.44	1224.69
350.66	1292.27
350.87	1228.78
351.09	1302.51
351.30	1175.53
351.52	1218.54
351.73	1206.25
351.95	1271.79
352.16	1296.36
352.38	1253.36
352.59	1239.02
352.80	1234.93
353.02	1263.60
353.23	1196.01
353.45	1279.98
353.66	1339.37
353.88	1249.26
354.09	1322.99
354.31	1247.21
354.52	1267.69
354.73	1341.42
354.95	1247.21
355.16	1308.65
355.38	1200.11
355.59	1226.73
355.81	1257.45
356.02	1265.64
356.24	1241.07
356.45	1204.21
356.66	1243.12
356.88	1263.60
357.09	1261.55
357.31	1304.56
357.52	1267.69
357.74	1241.07
357.95	1218.54
358.17	1249.26
358.38	1245.16
358.59	1320.94
358.81	1185.77
359.02	1232.88
359.24	1196.01
359.45	1236.97
359.66	1286.12
359.88	1255.40
360.09	1241.07
360.31	1202.16
360.52	1226.73
360.74	1241.07
360.95	1296.36
361.16	1175.53
361.38	1300.46
361.59	1294.32
361.81	1310.70
362.02	1259.50
362.23	1257.45
362.45	1318.89
362.66	1216.49
362.88	1218.54
363.09	1243.12
363.31	1249.26
363.52	1243.12
363.73	1249.26
363.95	1245.16
364.16	1333.23
364.38	1228.78
364.59	1234.93
364.80	1251.31
365.02	1243.12
365.23	1286.12
365.45	1210.35
365.66	1269.74
365.87	1265.64
366.09	1296.36
366.30	1220.59
366.51	1294.32
366.73	1345.52
366.94	1269.74
367.16	1134.57
367.37	1271.79
367.58	1226.73
367.80	1331.18
368.01	1234.93
368.23	1226.73
368.44	1286.12
368.65	1241.07
368.87	1282.03
369.08	1232.88
369.29	1181.68
369.51	1241.07
369.72	1273.84
369.94	1275.88
370.15	1257.45
370.36	1296.36
370.58	1228.78
370.79	1269.74
371.00	1277.93
371.22	1220.59
371.43	1284.08
371.64	1282.03
371.86	1198.06
372.07	1279.98
372.29	1259.50
372.50	1296.36
372.71	1185.77
372.93	1288.17
373.14	1232.88
373.35	1310.70
373.57	1282.03
373.78	1245.16
373.99	1247.21
374.21	1204.21
374.42	1234.93
374.63	1277.93
374.85	1191.92
375.06	1187.82
375.27	1179.63
375.49	1302.51
375.70	1232.88
375.91	1234.93
376.13	1275.88
376.34	1257.45
376.55	1296.36
376.77	1243.12
376.98	1239.02
377.19	1275.88
377.41	1167.34
377.62	1286.12
377.83	1251.31
378.05	1220.59
378.26	1382.38
378.47	1202.16
378.69	1288.17
378.90	1214.45
379.11	1241.07
379.33	1277.93
379.54	1290.22
379.75	1243.12
379.97	1230.83
380.18	1273.84
380.39	1255.40
380.61	1234.93
380.82	1308.65
381.03	1261.55
381.25	1216.49
381.46	1277.93
381.67	1214.45
381.89	1243.12
382.10	1163.25
382.31	1265.64
382.52	1210.35
382.74	1310.70
382.95	1239.02
383.16	1212.40
383.38	1357.80
383.59	1279.98
383.80	1279.98
384.02	1230.83
384.23	1263.60
384.44	1253.36
384.65	1269.74
384.87	1177.58
385.08	1226.73
385.29	1214.45
385.51	1230.83
385.72	1230.83
385.93	1304.56
386.14	1226.73
386.36	1404.91
386.57	1259.50
386.78	1261.55
387.00	1230.83
387.21	1189.87
387.42	1257.45
387.63	1353.71
387.85	1253.36
388.06	1191.92
388.27	1300.46
388.49	1185.77
388.70	1320.94
388.91	1247.21
389.12	1253.36
389.34	1261.55
389.55	1226.73
389.76	1239.02
389.97	1290.22
390.19	1216.49
390.40	1257.45
390.61	1245.16
390.82	1187.82
391.04	1222.64
391.25	1329.13
391.46	1347.56
391.68	1228.78
391.89	1259.50
392.10	1243.12
392.31	1161.20
392.53	1208.30
392.74	1245.16
392.95	1228.78
393.16	1150.96
393.38	1226.73
393.59	1312.75
393.80	1271.79
394.01	1243.12
394.23	1318.89
394.44	1150.96
394.65	1179.63
394.86	1253.36
395.07	1259.50
395.29	1265.64
395.50	1306.60
395.71	1288.17
395.92	1198.06
396.14	1224.69
396.35	1214.45
396.56	1198.06
396.77	1267.69
396.99	1226.73
397.20	1249.26
397.41	1300.46
397.62	1249.26
397.83	1241.07
398.05	1271.79
398.26	1277.93
398.47	1263.60
398.68	1243.12
398.90	1300.46
399.11	1288.17
399.32	1255.40
399.53	1265.64
399.74	1329.13
399.96	1249.26
400.17	1214.45
400.38	1296.36
400.59	1171.44
400.81	1187.82
401.02	1308.65
401.23	1218.54
401.44	1234.93
401.65	1263.60
401.87	1236.97
402.08	1347.56
402.29	1220.59
402.50	1228.78
402.71	1306.60
402.93	1269.74
403.14	1310.70
403.35	1159.15
403.56	1327.08
403.77	1224.69
403.99	1220.59
404.20	1269.74
404.41	1308.65
404.62	1193.97
404.83	1234.93
405.04	1286.12
405.26	1310.70
405.47	1226.73
405.68	1267.69
405.89	1202.16
406.10	1261.55
406.32	1355.76
406.53	1331.18
406.74	1333.23
406.95	1161.20
407.16	1257.45
407.37	1255.40
407.59	1245.16
407.80	1228.78
408.01	1269.74
408.22	1329.13
408.43	1241.07
408.64	1150.96
408.86	1245.16
409.07	1263.60
409.28	1200.11
409.49	1228.78
409.70	1320.94
409.91	1300.46
410.13	1306.60
410.34	1220.59
410.55	1247.21
410.76	1196.01
410.97	1210.35
411.18	1220.59
411.40	1259.50
411.61	1300.46
411.82	1341.42
412.03	1261.55
412.24	1222.64
412.45	1273.84
412.66	1234.93
412.88	1255.40
413.09	1236.97
413.30	1304.56
413.51	1302.51
413.72	1185.77
413.93	1275.88
414.14	1226.73
414.36	1234.93
414.57	1193.97
414.78	1251.31
414.99	1300.46
415.20	1222.64
415.41	1300.46
415.62	1273.84
415.83	1318.89
416.05	1275.88
416.26	1208.30
416.47	1212.40
416.68	1247.21
416.89	1243.12
417.10	1382.38
417.31	1259.50
417.52	1269.74
417.74	1196.01
417.95	1218.54
418.16	1253.36
418.37	1218.54
418.58	1314.80
418.79	1320.94
419.00	1312.75
419.21	1320.94
419.42	1243.12
419.64	1249.26
419.85	1212.40
420.06	1298.41
420.27	1257.45
420.48	1224.69
420.69	1212.40
420.90	1322.99
421.11	1249.26
421.32	1216.49
421.53	1267.69
421.75	1204.21
421.96	1402.86
422.17	1230.83
422.38	1234.93
422.59	1288.17
422.80	1259.50
423.01	1236.97
423.22	1306.60
423.43	1284.08
423.64	1269.74
423.85	1247.21
424.07	1247.21
424.28	1349.61
424.49	1230.83
424.70	1253.36
424.91	1325.04
425.12	1312.75
425.33	1202.16
425.54	1273.84
425.75	1255.40
425.96	1261.55
426.17	1277.93
426.38	1243.12
426.59	1243.12
426.81	1267.69
427.02	1200.11
427.23	1263.60
427.44	1138.67
427.65	1191.92
427.86	1198.06
428.07	1325.04
428.28	1271.79
428.49	1232.88
428.70	1349.61
428.91	1210.35
429.12	1284.08
429.33	1251.31
429.54	1300.46
429.75	1247.21
429.96	1245.16
430.17	1259.50
430.38	1304.56
430.60	1267.69
430.81	1251.31
431.02	1161.20
431.23	1253.36
431.44	1193.97
431.65	1189.87
431.86	1310.70
432.07	1232.88
432.28	1253.36
432.49	1259.50
432.70	1341.42
432.91	1255.40
433.12	1245.16
433.33	1302.51
433.54	1226.73
433.75	1208.30
433.96	1222.64
434.17	1279.98
434.38	1185.77
434.59	1282.03
434.80	1288.17
435.01	1284.08
435.22	1316.84
435.43	1239.02
435.64	1249.26
435.85	1226.73
436.06	1296.36
436.27	1318.89
436.48	1265.64
436.69	1277.93
436.90	1257.45
437.11	1271.79
437.32	1327.08
437.53	1273.84
437.74	1214.45
437.95	1191.92
438.16	1286.12
438.37	1286.12
438.58	1282.03
438.79	1292.27
439.00	1345.52
439.21	1243.12
439.42	1212.40
439.63	1351.66
439.84	1271.79
440.05	1271.79
440.26	1320.94
440.47	1312.75
440.68	1157.10
440.89	1339.37
441.10	1267.69
441.31	1226.73
441.52	1267.69
441.73	1247.21
441.94	1320.94
442.15	1357.80
442.36	1345.52
442.57	1247.21
442.78	1300.46
442.99	1232.88
443.20	1232.88
443.41	1241.07
443.62	1167.34
443.83	1234.93
444.04	1292.27
444.25	1325.04
444.46	1206.25
444.67	1243.12
444.88	1275.88
445.09	1234.93
445.30	1271.79
445.51	1249.26
445.72	1241.07
445.93	1251.31
446.14	1337.32
446.35	1265.64
446.56	1261.55
446.77	1343.47
446.98	1183.73
447.19	1169.39
447.39	1302.51
447.60	1236.97
447.81	1296.36
448.02	1279.98
448.23	1327.08
448.44	1368.04
448.65	1218.54
448.86	1183.73
449.07	1189.87
449.28	1300.46
449.49	1286.12
449.70	1292.27
449.91	1251.31
450.12	1257.45
450.33	1245.16
450.54	1333.23
450.75	1247.21
450.95	1277.93
451.16	1273.84
451.37	1220.59
451.58	1251.31
451.79	1222.64
452.00	1296.36
452.21	1263.60
452.42	1318.89
452.63	1214.45
452.84	1290.22
453.05	1275.88
453.26	1249.26
453.47	1251.31
453.68	1226.73
453.88	1218.54
454.09	1167.34
454.30	1284.08
454.51	1259.50
454.72	1292.27
454.93	1308.65
455.14	1228.78
455.35	1273.84
455.56	1200.11
455.77	1161.20
455.98	1239.02
456.18	1286.12
456.39	1220.59
456.60	1230.83
456.81	1210.35
457.02	1265.64
457.23	1247.21
457.44	1230.83
457.65	1253.36
457.86	1214.45
458.06	1279.98
458.27	1255.40
458.48	1312.75
458.69	1370.09
458.90	1320.94
459.11	1267.69
459.32	1298.41
459.53	1255.40
459.74	1191.92
459.94	1204.21
460.15	1261.55
460.36	1243.12
460.57	1255.40
460.78	1230.83
460.99	1241.07
461.20	1161.20
461.41	1220.59
461.61	1200.11
461.82	1200.11
462.03	1261.55
462.24	1304.56
462.45	1292.27
462.66	1253.36
462.87	1253.36
463.08	1234.93
463.28	1253.36
463.49	1273.84
463.70	1236.97
463.91	1181.68
464.12	1292.27
464.33	1187.82
464.54	1245.16
464.74	1230.83
464.95	1286.12
465.16	1275.88
465.37	1294.32
465.58	1193.97
465.79	1322.99
465.99	1284.08
466.20	1210.35
466.41	1275.88
466.62	1232.88
466.83	1214.45
467.04	1296.36
467.25	1198.06
467.45	1277.93
467.66	1286.12
467.87	1241.07
468.08	1312.75
468.29	1181.68
468.50	1304.56
468.70	1308.65
468.91	1286.12
469.12	1247.21
469.33	1255.40
469.54	1316.84
469.75	1296.36
469.95	1308.65
470.16	1210.35
470.37	1255.40
470.58	1220.59
470.79	1183.73
470.99	1222.64
471.20	1142.77
471.41	1243.12
471.62	1308.65
471.83	1245.16
472.03	1306.60
472.24	1198.06
472.45	1329.13
472.66	1298.41
472.87	1206.25
473.08	1241.07
473.28	1234.93
473.49	1150.96
473.70	1296.36
473.91	1275.88
474.12	1292.27
474.32	1318.89
474.53	1222.64
474.74	1273.84
474.95	1236.97
475.16	1279.98
475.36	1292.27
475.57	1261.55
475.78	1257.45
475.99	1316.84
476.19	1251.31
476.40	1277.93
476.61	1333.23
476.82	1304.56
477.03	1314.80
477.23	1239.02
477.44	1275.88
477.65	1269.74
477.86	1339.37
478.06	1286.12
478.27	1327.08
478.48	1325.04
478.69	1265.64
478.90	1257.45
479.10	1312.75
479.31	1302.51
479.52	1310.70
479.73	1255.40
479.93	1294.32
480.14	1316.84
480.35	1290.22
480.56	1255.40
480.76	1243.12
480.97	1345.52
481.18	1236.97
481.39	1261.55
481.59	1292.27
481.80	1169.39
482.01	1183.73
482.22	1279.98
482.42	1331.18
482.63	1251.31
482.84	1189.87
483.05	1269.74
483.25	1216.49
483.46	1263.60
483.67	1226.73
483.88	1259.50
484.08	1245.16
484.29	1232.88
484.50	1267.69
484.71	1267.69
484.91	1226.73
485.12	1304.56
485.33	1208.30
485.54	1202.16
485.74	1255.40
485.95	1273.84
486.16	1241.07
486.37	1236.97
486.57	1253.36
486.78	1267.69
486.99	1255.40
487.19	1239.02
487.40	1232.88
487.61	1261.55
487.82	1218.54
488.02	1202.16
488.23	1308.65
488.44	1253.36
488.64	1191.92
488.85	1234.93
489.06	1234.93
489.27	1257.45
489.47	1304.56
489.68	1210.35
489.89	1306.60
490.09	1267.69
490.30	1361.90
490.51	1232.88
490.71	1191.92
490.92	1257.45
491.13	1265.64
491.34	1232.88
491.54	1310.70
491.75	1263.60
491.96	1282.03
492.16	1153.01
492.37	1159.15
492.58	1304.56
492.78	1224.69
492.99	1269.74
493.20	1267.69
493.40	1236.97
493.61	1271.79
493.82	1216.49
494.03	1306.60
494.23	1325.04
494.44	1306.60
494.65	1263.60
494.85	1279.98
495.06	1196.01
495.27	1220.59
495.47	1173.49
495.68	1224.69
495.89	1261.55
496.09	1220.59
496.30	1234.93
496.51	1284.08
496.71	1279.98
496.92	1245.16
497.13	1245.16
497.33	1286.12
497.54	1253.36
497.75	1251.31
497.95	1243.12
498.16	1300.46
498.37	1243.12
498.57	1187.82
498.78	1198.06
498.98	1249.26
499.19	1243.12
499.40	1187.82
499.60	1230.83
499.81	1255.40
500.02	1257.45
500.22	1273.84
500.43	1308.65
500.64	1277.93
500.84	1218.54
501.05	1220.59
501.26	1226.73
501.46	1288.17
501.67	1253.36
501.87	1226.73
502.08	1191.92
502.29	1279.98
502.49	1325.04
502.70	1196.01
502.91	1169.39
503.11	1187.82
503.32	1275.88
503.52	1275.88
503.73	1261.55
503.94	1236.97
504.14	1226.73
504.35	1206.25
504.56	1255.40
504.76	1224.69
504.97	1257.45
505.17	1333.23
505.38	1284.08
505.59	1230.83
505.79	1165.29
506.00	1241.07
506.20	1212.40
506.41	1183.73
506.62	1239.02
506.82	1288.17
507.03	1273.84
507.23	1226.73
507.44	1265.64
507.65	1282.03
507.85	1206.25
508.06	1210.35
508.26	1198.06
508.47	1241.07
508.68	1300.46
508.88	1277.93
509.09	1292.27
509.29	1230.83
509.50	1288.17
509.71	1275.88
509.91	1212.40
510.12	1267.69
510.32	1267.69
510.53	1234.93
510.73	1292.27
510.94	1228.78
511.15	1245.16
511.35	1222.64
511.56	1249.26
511.76	1208.30
511.97	1234.93
512.18	1267.69
512.38	1300.46
512.59	1175.53
512.79	1193.97
513.00	1234.93
513.20	1241.07
513.41	1218.54
513.61	1255.40
513.82	1316.84
514.03	1290.22
514.23	1345.52
514.44	1279.98
514.64	1312.75
514.85	1282.03
515.05	1341.42
515.26	1273.84
515.46	1218.54
515.67	1308.65
515.88	1216.49
516.08	1171.44
516.29	1122.29
516.49	1277.93
516.70	1320.94
516.90	1239.02
517.11	1318.89
517.31	1206.25
517.52	1228.78
517.72	1243.12
517.93	1208.30
518.14	1310.70
518.34	1292.27
518.55	1288.17
518.75	1255.40
518.96	1300.46
519.16	1230.83
519.37	1228.78
519.57	1263.60
519.78	1230.83
519.98	1198.06
520.19	1279.98
520.39	1286.12
520.60	1357.80
520.80	1271.79
521.01	1304.56
521.21	1292.27
521.42	1236.97
521.62	1359.85
521.83	1267.69
522.03	1312.75
522.24	1214.45
522.44	1245.16
522.65	1236.97
522.85	1269.74
523.06	1222.64
523.26	1277.93
523.47	1247.21
523.67	1257.45
523.88	1286.12
524.08	1282.03
524.29	1226.73
524.49	1187.82
524.70	1259.50
524.90	1316.84
525.11	1245.16
525.31	1275.88
525.52	1214.45
525.72	1269.74
525.93	1222.64
526.13	1236.97
526.34	1208.30
526.54	1253.36
526.75	1216.49
526.95	1269.74
527.16	1302.51
527.36	1286.12
527.57	1290.22
527.77	1241.07
527.98	1239.02
528.18	1251.31
528.39	1296.36
528.59	1234.93
528.79	1187.82
529.00	1218.54
529.20	1216.49
529.41	1220.59
529.61	1261.55
529.82	1247.21
530.02	1169.39
530.23	1265.64
530.43	1234.93
530.64	1296.36
530.84	1363.95
531.05	1243.12
531.25	1249.26
531.45	1325.04
531.66	1318.89
531.86	1251.31
532.07	1153.01
532.27	1300.46
532.48	1220.59
532.68	1284.08
532.89	1259.50
533.09	1290.22
533.29	1277.93
533.50	1245.16
533.70	1185.77
533.91	1234.93
534.11	1286.12
534.32	1263.60
534.52	1255.40
534.72	1290.22
534.93	1271.79
535.13	1230.83
535.34	1308.65
535.54	1288.17
535.75	1216.49
535.95	1255.40
536.15	1161.20
536.36	1312.75
536.56	1243.12
536.77	1206.25
536.97	1167.34
537.18	1171.44
537.38	1243.12
537.58	1374.19
537.79	1292.27
537.99	1286.12
538.20	1275.88
538.40	1218.54
538.60	1163.25
538.81	1224.69
539.01	1259.50
539.22	1302.51
539.42	1185.77
539.62	1177.58
539.83	1142.77
540.03	1204.21
540.24	1351.66
540.44	1257.45
540.64	1228.78
540.85	1222.64
541.05	1247.21
541.26	1296.36
541.46	1304.56
541.66	1298.41
541.87	1204.21
542.07	1308.65
542.27	1316.84
542.48	1208.30
542.68	1327.08
542.89	1286.12
543.09	1253.36
543.29	1187.82
543.50	1284.08
543.70	1302.51
543.90	1241.07
544.11	1279.98
544.31	1136.62
544.52	1220.59
544.72	1259.50
544.92	1308.65
545.13	1220.59
545.33	1359.85
545.53	1230.83
545.74	1173.49
545.94	1234.93
546.14	1236.97
546.35	1261.55
546.55	1267.69
546.76	1374.19
546.96	1316.84
547.16	1243.12
547.37	1239.02
547.57	1222.64
547.77	1306.60
547.98	1255.40
548.18	1251.31
548.38	1325.04
548.59	1320.94
548.79	1304.56
548.99	1247.21
549.20	1300.46
549.40	1243.12
549.60	1275.88
549.81	1191.92
550.01	1275.88
550.21	1216.49
550.42	1308.65
550.62	1222.64
550.82	1298.41
551.03	1226.73
551.23	1314.80
551.43	1241.07
551.64	1292.27
551.84	1208.30
552.04	1310.70
552.25	1226.73
552.45	1261.55
552.65	1337.32
552.86	1279.98
553.06	1310.70
553.26	1232.88
553.46	1220.59
553.67	1290.22
553.87	1267.69
554.07	1230.83
554.28	1241.07
554.48	1304.56
554.68	1296.36
554.89	1216.49
555.09	1226.73
555.29	1243.12
555.50	1232.88
555.70	1236.97
555.90	1279.98
556.10	1177.58
556.31	1226.73
556.51	1247.21
556.71	1304.56
556.92	1302.51
557.12	1163.25
557.32	1253.36
557.52	1273.84
557.73	1239.02
557.93	1183.73
558.13	1236.97
558.34	1284.08
558.54	1226.73
558.74	1198.06
558.94	1255.40
559.15	1255.40
559.35	1269.74
559.55	1267.69
559.75	1312.75
559.96	1359.85
560.16	1163.25
560.36	1218.54
560.56	1331.18
560.77	1228.78
560.97	1259.50
561.17	1263.60
561.38	1257.45
561.58	1294.32
561.78	1337.32
561.98	1314.80
562.19	1269.74
562.39	1261.55
562.59	1361.90
562.79	1167.34
563.00	1300.46
563.20	1234.93
563.40	1228.78
563.60	1271.79
563.81	1251.31
564.01	1349.61
564.21	1290.22
564.41	1191.92
564.61	1267.69
564.82	1206.25
565.02	1214.45
565.22	1214.45
565.42	1308.65
565.63	1204.21
565.83	1263.60
566.03	1333.23
566.23	1255.40
566.44	1236.97
566.64	1157.10
566.84	1310.70
567.04	1282.03
567.24	1325.04
567.45	1232.88
567.65	1177.58
567.85	1208.30
568.05	1230.83
568.26	1175.53
568.46	1232.88
568.66	1269.74
568.86	1239.02
569.06	1316.84
569.27	1179.63
569.47	1267.69
569.67	1300.46
569.87	1271.79
570.07	1198.06
570.28	1183.73
570.48	1275.88
570.68	1232.88
570.88	1255.40
571.08	1249.26
571.29	1261.55
571.49	1187.82
571.69	1216.49
571.89	1345.52
572.09	1243.12
572.30	1265.64
572.50	1308.65
572.70	1202.16
572.90	1257.45
573.10	1273.84
573.30	1214.45
573.51	1294.32
573.71	1282.03
573.91	1300.46
574.11	1243.12
574.31	1249.26
574.51	1275.88
574.72	1222.64
574.92	1120.24
575.12	1290.22
575.32	1261.55
575.52	1173.49
575.72	1218.54
575.93	1232.88
576.13	1300.46
576.33	1284.08
576.53	1265.64
576.73	1310.70
576.93	1318.89
577.14	1255.40
577.34	1171.44
577.54	1204.21
577.74	1245.16
577.94	1290.22
578.14	1259.50
578.35	1177.58
578.55	1263.60
578.75	1269.74
578.95	1249.26
579.15	1247.21
579.35	1165.29
579.55	1265.64
579.75	1179.63
579.96	1318.89
580.16	1267.69
580.36	1210.35
580.56	1265.64
580.76	1206.25
580.96	1251.31
581.16	1228.78
581.37	1247.21
581.57	1228.78
581.77	1224.69
581.97	1228.78
582.17	1275.88
582.37	1370.09
582.57	1193.97
582.77	1263.60
582.97	1220.59
583.18	1294.32
583.38	1228.78
583.58	1275.88
583.78	1169.39
583.98	1316.84
584.18	1325.04
584.38	1296.36
584.58	1275.88
584.78	1232.88
584.99	1239.02
585.19	1259.50
585.39	1308.65
585.59	1251.31
585.79	1277.93
585.99	1177.58
586.19	1236.97
586.39	1234.93
586.59	1279.98
586.79	1269.74
587.00	1247.21
587.20	1247.21
587.40	1253.36
587.60	1226.73
587.80	1265.64
588.00	1243.12
588.20	1271.79
588.40	1214.45
588.60	1245.16
588.80	1271.79
589.00	1251.31
589.20	1173.49
589.40	1210.35
589.61	1335.28
589.81	1153.01
590.01	1304.56
590.21	1136.62
590.41	1333.23
590.61	1228.78
590.81	1255.40
591.01	1193.97
591.21	1241.07
591.41	1198.06
591.61	1333.23
591.81	1228.78
592.01	1241.07
592.21	1171.44
592.41	1277.93
592.61	1234.93
592.81	1222.64
593.02	1267.69
593.22	1245.16
593.42	1214.45
593.62	1196.01
593.82	1261.55
594.02	1105.90
594.22	1193.97
594.42	1261.55
594.62	1279.98
594.82	1208.30
595.02	1263.60
595.22	1251.31
595.42	1265.64
595.62	1341.42
595.82	1157.10
596.02	1253.36
596.22	1267.69
596.42	1347.56
596.62	1202.16
596.82	1226.73
597.02	1224.69
597.22	1286.12
597.42	1347.56
597.62	1148.91
597.82	1196.01
598.02	1191.92
598.22	1247.21
598.42	1259.50
598.62	1236.97
598.82	1257.45
599.02	1265.64
599.22	1277.93
599.42	1230.83
599.62	1294.32
599.82	1339.37
600.02	1325.04
600.22	1273.84
600.42	1290.22
600.62	1255.40
600.82	1228.78
601.02	1288.17
601.22	1288.17
601.42	1277.93
601.62	1306.60
601.82	1325.04
602.02	1296.36
602.22	1171.44
602.42	1259.50
602.62	1204.21
602.82	1290.22
603.02	1232.88
603.22	1337.32
603.42	1267.69
603.62	1128.43
603.82	1312.75
604.02	1263.60
604.22	1286.12
604.42	1279.98
604.62	1204.21
604.82	1245.16
605.02	1253.36
605.22	1288.17
605.42	1255.40
605.62	1335.28
605.82	1228.78
606.02	1189.87
606.22	1228.78
606.42	1161.20
606.62	1282.03
606.82	1232.88
607.01	1177.58
607.21	1222.64
607.41	1220.59
607.61	1171.44
607.81	1284.08
608.01	1173.49
608.21	1245.16
608.41	1214.45
608.61	1290.22
608.81	1208.30
609.01	1265.64
609.21	1206.25
609.41	1245.16
609.61	1286.12
609.81	1279.98
610.01	1329.13
610.21	1294.32
610.40	1284.08
610.60	1251.31
610.80	1142.77
611.00	1249.26
611.20	1267.69
611.40	1259.50
611.60	1241.07
611.80	1210.35
612.00	1269.74
612.20	1269.74
612.40	1265.64
612.60	1255.40
612.79	1177.58
612.99	1257.45
613.19	1282.03
613.39	1232.88
613.59	1222.64
613.79	1247.21
613.99	1282.03
614.19	1269.74
614.39	1144.81
614.59	1247.21
614.79	1277.93
614.98	1249.26
615.18	1279.98
615.38	1253.36
615.58	1273.84
615.78	1259.50
615.98	1253.36
616.18	1263.60
616.38	1183.73
616.58	1267.69
616.77	1275.88
616.97	1247.21
617.17	1275.88
617.37	1232.88
617.57	1171.44
617.77	1216.49
617.97	1277.93
618.17	1302.51
618.36	1187.82
618.56	1259.50
618.76	1308.65
618.96	1241.07
619.16	1212.40
619.36	1267.69
619.56	1239.02
619.75	1271.79
619.95	1193.97
620.15	1349.61
620.35	1286.12
620.55	1228.78
620.75	1167.34
620.95	1200.11
621.14	1232.88
621.34	1259.50
621.54	1265.64
621.74	1234.93
621.94	1236.97
622.14	1183.73
622.34	1153.01
622.53	1243.12
622.73	1189.87
622.93	1284.08
623.13	1259.50
623.33	1171.44
623.53	1265.64
623.72	1243.12
623.92	1230.83
624.12	1239.02
624.32	1232.88
624.52	1247.21
624.72	1193.97
624.91	1255.40
625.11	1226.73
625.31	1241.07
625.51	1153.01
625.71	1226.73
625.91	1271.79
626.10	1310.70
626.30	1212.40
626.50	1177.58
626.70	1241.07
626.90	1247.21
627.09	1273.84
627.29	1273.84
627.49	1189.87
627.69	1234.93
627.89	1271.79
628.08	1226.73
628.28	1306.60
628.48	1275.88
628.68	1251.31
628.88	1257.45
629.07	1222.64
629.27	1300.46
629.47	1253.36
629.67	1263.60
629.87	1269.74
630.06	1161.20
630.26	1327.08
630.46	1187.82
630.66	1284.08
630.86	1222.64
631.05	1247.21
631.25	1286.12
631.45	1191.92
631.65	1263.60
631.84	1204.21
632.04	1325.04
632.24	1173.49
632.44	1269.74
632.64	1150.96
632.83	1251.31
633.03	1241.07
633.23	1275.88
633.43	1282.03
633.62	1277.93
633.82	1271.79
634.02	1261.55
634.22	1263.60
634.41	1177.58
634.61	1251.31
634.81	1228.78
635.01	1253.36
635.20	1296.36
635.40	1216.49
635.60	1218.54
635.80	1277.93
635.99	1245.16
636.19	1275.88
636.39	1269.74
636.59	1187.82
636.78	1343.47
636.98	1259.50
637.18	1218.54
637.38	1269.74
637.57	1214.45
637.77	1181.68
637.97	1204.21
638.17	1304.56
638.36	1290.22
638.56	1253.36
638.76	1234.93
638.96	1279.98
639.15	1177.58
639.35	1218.54
639.55	1193.97
639.74	1220.59
639.94	1232.88
640.14	1241.07
640.34	1251.31
640.53	1241.07
640.73	1198.06
640.93	1202.16
641.12	1185.77
641.32	1177.58
641.52	1259.50
641.72	1261.55
641.91	1239.02
642.11	1282.03
642.31	1202.16
642.50	1302.51
642.70	1329.13
642.90	1153.01
643.09	1294.32
643.29	1202.16
643.49	1263.60
643.69	1236.97
643.88	1216.49
644.08	1210.35
644.28	1165.29
644.47	1179.63
644.67	1247.21
644.87	1140.72
645.06	1302.51
645.26	1357.80
645.46	1218.54
645.65	1224.69
645.85	1245.16
646.05	1337.32
646.24	1236.97
646.44	1220.59
646.64	1193.97
646.83	1290.22
647.03	1325.04
647.23	1218.54
647.42	1255.40
647.62	1288.17
647.82	1230.83
648.01	1216.49
648.21	1267.69
648.41	1282.03
648.60	1220.59
648.80	1241.07
649.00	1243.12
649.19	1286.12
649.39	1222.64
649.59	1230.83
649.78	1259.50
649.98	1253.36
650.18	1153.01
650.37	1210.35
650.57	1193.97
650.76	1241.07
650.96	1259.50
651.16	1245.16
651.35	1312.75
651.55	1267.69
651.75	1277.93
651.94	1200.11
652.14	1259.50
652.34	1269.74
652.53	1163.25
652.73	1286.12
652.92	1232.88
653.12	1189.87
653.32	1179.63
653.51	1183.73
653.71	1267.69
653.91	1239.02
654.10	1284.08
654.30	1124.33
654.49	1265.64
654.69	1251.31
654.89	1288.17
655.08	1292.27
655.28	1212.40
655.47	1169.39
655.67	1216.49
655.87	1212.40
656.06	1208.30
656.26	1327.08
656.45	1275.88
656.65	1257.45
656.85	1284.08
657.04	1210.35
657.24	1263.60
657.43	1253.36
657.63	1204.21
657.83	1275.88
658.02	1331.18
658.22	1251.31
658.41	1333.23
658.61	1112.05
658.81	1245.16
659.00	1224.69
659.20	1234.93
659.39	1290.22
659.59	1320.94
659.78	1261.55
659.98	1230.83
660.18	1306.60
660.37	1259.50
660.57	1275.88
660.76	1267.69
660.96	1183.73
661.15	1243.12
661.35	1290.22
661.54	1173.49
661.74	1189.87
661.94	1497.07
662.13	1204.21
662.33	1183.73
662.52	1226.73
662.72	1259.50
662.91	1189.87
663.11	1263.60
663.30	1232.88
663.50	1261.55
663.70	1298.41
663.89	1294.32
664.09	1232.88
664.28	1208.30
664.48	1261.55
664.67	1241.07
664.87	1279.98
665.06	1265.64
665.26	1187.82
665.45	1210.35
665.65	1165.29
665.84	1198.06
666.04	1300.46
666.24	1232.88
666.43	1204.21
666.63	1232.88
666.82	1202.16
667.02	1275.88
667.21	1279.98
667.41	1294.32
667.60	1173.49
667.80	1239.02
667.99	1310.70
668.19	1163.25
668.38	1265.64
668.58	1271.79
668.77	1193.97
668.97	1286.12
669.16	1275.88
669.36	1261.55
669.55	1290.22
669.75	1247.21
669.94	1433.58
670.14	1196.01
670.33	1284.08
670.53	1210.35
670.72	1300.46
670.92	1261.55
671.11	1232.88
671.31	1177.58
671.50	1286.12
671.70	1218.54
671.89	1243.12
672.09	1284.08
672.28	1249.26
672.48	1175.53
672.67	1318.89
672.87	1275.88
673.06	1142.77
673.26	1456.11
673.45	1318.89
673.64	1288.17
673.84	1318.89
674.03	1161.20
674.23	1247.21
674.42	1236.97
674.62	1251.31
674.81	1200.11
675.01	1220.59
675.20	1173.49
675.40	1214.45
675.59	1271.79
675.79	1120.24
675.98	1249.26
676.17	1277.93
676.37	1177.58
676.56	1236.97
676.76	1267.69
676.95	1165.29
677.15	1216.49
677.34	1243.12
677.54	1216.49
677.73	1239.02
677.92	1224.69
678.12	1234.93
678.31	1316.84
678.51	1234.93
678.70	1230.83
678.90	1339.37
679.09	1306.60
679.28	1183.73
679.48	1259.50
679.67	1284.08
679.87	1191.92
680.06	1300.46
680.26	1218.54
680.45	1322.99
680.64	1218.54
680.84	1239.02
681.03	1218.54
681.23	1222.64
681.42	1243.12
681.61	1269.74
681.81	1290.22
682.00	1288.17
682.20	1261.55
682.39	1181.68
682.59	1185.77
682.78	1304.56
682.97	1234.93
683.17	1222.64
683.36	1232.88
683.56	1261.55
683.75	1277.93
683.94	1239.02
684.14	1320.94
684.33	1284.08
684.52	1308.65
684.72	1214.45
684.91	1234.93
685.11	1218.54
685.30	1275.88
685.49	1224.69
685.69	1226.73
685.88	1282.03
686.08	1204.21
686.27	1196.01
686.46	1230.83
686.66	1267.69
686.85	1230.83
687.04	1218.54
687.24	1230.83
687.43	1204.21
687.62	1263.60
687.82	1228.78
688.01	1269.74
688.21	1232.88
688.40	1292.27
688.59	1196.01
688.79	1173.49
688.98	1312.75
689.17	1232.88
689.37	1271.79
689.56	1247.21
689.75	1220.59
689.95	1218.54
690.14	1263.60
690.33	1300.46
690.53	1251.31
690.72	1222.64
690.91	1249.26
691.11	1212.40
691.30	1253.36
691.49	1333.23
691.69	1202.16
691.88	1218.54
692.07	1228.78
692.27	1284.08
692.46	1241.07
692.65	1286.12
692.85	1236.97
693.04	1245.16
693.23	1288.17
693.43	1271.79
693.62	1275.88
693.81	1279.98
694.01	1294.32
694.20	1204.21
694.39	1216.49
694.59	1218.54
694.78	1292.27
694.97	1198.06
695.17	1286.12
695.36	1210.35
695.55	1249.26
695.74	1220.59
695.94	1255.40
696.13	1265.64
696.32	1204.21
696.52	1292.27
696.71	1275.88
696.90	1259.50
697.10	1294.32
697.29	1337.32
697.48	1144.81
697.67	1296.36
697.87	1245.16
698.06	1255.40
698.25	1222.64
698.45	1251.31
698.64	1224.69
698.83	1241.07
699.02	1265.64
699.22	1253.36
699.41	1282.03
699.60	1263.60
699.79	1210.35
699.99	1320.94
700.18	1275.88
700.37	1261.55
700.57	1153.01
700.76	1275.88
700.95	1220.59
701.14	1214.45
701.34	1228.78
701.53	1243.12
701.72	1241.07
701.91	1234.93
702.11	1187.82
702.30	1320.94
702.49	1288.17
702.68	1206.25
702.88	1253.36
703.07	1206.25
703.26	1226.73
703.45	1193.97
703.65	1265.64
703.84	1249.26
704.03	1234.93
704.22	1316.84
704.42	1210.35
704.61	1220.59
704.80	1202.16
704.99	1193.97
705.18	1187.82
705.38	1202.16
705.57	1267.69
705.76	1234.93
705.95	1241.07
706.15	1232.88
706.34	1292.27
706.53	1253.36
706.72	1294.32
706.91	1318.89
707.11	1298.41
707.30	1247.21
707.49	1279.98
707.68	1339.37
707.88	1333.23
708.07	1239.02
708.26	1165.29
708.45	1288.17
708.64	1277.93
708.84	1232.88
709.03	1243.12
709.22	1241.07
709.41	1234.93
709.60	1343.47
709.80	1267.69
709.99	1288.17
710.18	1269.74
710.37	1234.93
710.56	1327.08
710.75	1177.58
710.95	1261.55
711.14	1320.94
711.33	1247.21
711.52	1279.98
711.71	1261.55
711.91	1214.45
712.10	1286.12
712.29	1294.32
712.48	1193.97
712.67	1249.26
712.86	1232.88
713.06	1304.56
713.25	1249.26
713.44	1181.68
713.63	1222.64
713.82	1251.31
714.01	1173.49
714.21	1257.45
714.40	1200.11
714.59	1325.04
714.78	1239.02
714.97	1304.56
715.16	1255.40
715.35	1216.49
715.55	1173.49
715.74	1265.64
715.93	1271.79
716.12	1206.25
716.31	1183.73
716.50	1228.78
716.69	1271.79
716.89	1345.52
717.08	1222.64
717.27	1251.31
717.46	1239.02
717.65	1247.21
717.84	1284.08
718.03	1220.59
718.23	1279.98
718.42	1181.68
718.61	1218.54
718.80	1230.83
718.99	1239.02
719.18	1134.57
719.37	1196.01
719.56	1189.87
719.75	1212.40
719.95	1224.69
720.14	1261.55
720.33	1204.21
720.52	1271.79
720.71	1255.40
720.90	1249.26
721.09	1247.21
721.28	1245.16
721.47	1267.69
721.67	1163.25
721.86	1247.21
722.05	1234.93
722.24	1230.83
722.43	1175.53
722.62	1304.56
722.81	1255.40
723.00	1269.74
723.19	1146.86
723.38	1271.79
723.57	1286.12
723.76	1304.56
723.96	1267.69
724.15	1210.35
724.34	1284.08
724.53	1224.69
724.72	1177.58
724.91	1243.12
725.10	1216.49
725.29	1202.16
725.48	1183.73
725.67	1243.12
725.86	1177.58
726.05	1228.78
726.24	1214.45
726.43	1232.88
726.63	1259.50
726.82	1275.88
727.01	1253.36
727.20	1198.06
727.39	1228.78
727.58	1265.64
727.77	1175.53
727.96	1322.99
728.15	1236.97
728.34	1349.61
728.53	1349.61
728.72	1284.08
728.91	1222.64
729.10	1210.35
729.29	1331.18
729.48	1196.01
729.67	1210.35
729.86	1230.83
730.05	1282.03
730.24	1196.01
730.43	1269.74
730.62	1247.21
730.81	1234.93
731.00	1200.11
731.19	1249.26
731.39	1243.12
731.58	1251.31
731.77	1177.58
731.96	1234.93
732.15	1259.50
732.34	1226.73
732.53	1220.59
732.72	1247.21
732.91	1239.02
733.10	1161.20
733.29	1206.25
733.48	1253.36
733.67	1155.05
733.86	1222.64
734.05	1212.40
734.24	1228.78
734.43	1230.83
734.62	1222.64
734.81	1284.08
735.00	1226.73
735.19	1267.69
735.38	1236.97
735.57	1296.36
735.76	1138.67
735.95	1159.15
736.14	1214.45
736.33	1267.69
736.51	1273.84
736.70	1284.08
736.89	1335.28
737.08	1228.78
737.27	1173.49
737.46	1218.54
737.65	1214.45
737.84	1263.60
738.03	1191.92
738.22	1245.16
738.41	1259.50
738.60	1232.88
738.79	1325.04
738.98	1230.83
739.17	1193.97
739.36	1251.31
739.55	1255.40
739.74	1292.27
739.93	1222.64
740.12	1181.68
740.31	1277.93
740.50	1345.52
740.69	1230.83
740.88	1249.26
741.07	1236.97
741.25	1155.05
741.44	1220.59
741.63	1243.12
741.82	1183.73
742.01	1255.40
742.20	1230.83
742.39	1196.01
742.58	1304.56
742.77	1241.07
742.96	1267.69
743.15	1187.82
743.34	1243.12
743.53	1226.73
743.72	1224.69
743.90	1245.16
744.09	1282.03
744.28	1196.01
744.47	1228.78
744.66	1243.12
744.85	1232.88
745.04	1271.79
745.23	1241.07
745.42	1306.60
745.61	1249.26
745.80	1198.06
745.98	1204.21
746.17	1302.51
746.36	1220.59
746.55	1247.21
746.74	1296.36
746.93	1198.06
747.12	1308.65
747.31	1169.39
747.50	1265.64
747.69	1232.88
747.87	1255.40
748.06	1245.16
748.25	1255.40
748.44	1282.03
748.63	1216.49
748.82	1216.49
749.01	1347.56
749.20	1224.69
749.38	1251.31
749.57	1216.49
749.76	1265.64
749.95	1284.08
750.14	1191.92
750.33	1351.66
750.52	1347.56
750.70	1271.79
750.89	1175.53
751.08	1259.50
751.27	1208.30
751.46	1251.31
751.65	1302.51
751.84	1286.12
752.02	1218.54
752.21	1259.50
752.40	1222.64
752.59	1234.93
752.78	1259.50
752.97	1200.11
753.16	1144.81
753.34	1226.73
753.53	1294.32
753.72	1335.28
753.91	1259.50
754.10	1122.29
754.29	1292.27
754.47	1249.26
754.66	1255.40
754.85	1173.49
755.04	1210.35
755.23	1245.16
755.42	1267.69
755.60	1234.93
755.79	1316.84
755.98	1300.46
756.17	1200.11
756.36	1277.93
756.54	1275.88
756.73	1294.32
756.92	1273.84
757.11	1251.31
757.30	1243.12
757.48	1284.08
757.67	1241.07
757.86	1228.78
758.05	1202.16
758.24	1249.26
758.43	1191.92
758.61	1261.55
758.80	1259.50
758.99	1345.52
759.18	1206.25
759.36	1300.46
759.55	1214.45
759.74	1259.50
759.93	1257.45
760.12	1310.70
760.30	1286.12
760.49	1320.94
760.68	1239.02
760.87	1255.40
761.06	1208.30
761.24	1279.98
761.43	1177.58
761.62	1259.50
761.81	1304.56
761.99	1212.40
762.18	1208.30
762.37	1259.50
762.56	1214.45
762.74	1312.75
762.93	1275.88
763.12	1370.09
763.31	1269.74
763.49	1241.07
763.68	1312.75
763.87	1259.50
764.06	1269.74
764.24	1271.79
764.43	1259.50
764.62	1204.21
764.81	1202.16
764.99	1220.59
765.18	1308.65
765.37	1273.84
765.56	1247.21
765.74	1292.27
765.93	1226.73
766.12	1202.16
766.31	1226.73
766.49	1249.26
766.68	1253.36
766.87	1298.41
767.06	1187.82
767.24	1163.25
767.43	1249.26
767.62	1226.73
767.80	1259.50
767.99	1294.32
768.18	1200.11
768.37	1259.50
768.55	1210.35
768.74	1236.97
768.93	1212.40
769.11	1296.36
769.30	1212.40
769.49	1253.36
769.68	1284.08
769.86	1302.51
770.05	1314.80
770.24	1279.98
770.42	1294.32
770.61	1179.63
770.80	1239.02
770.98	1355.76
771.17	1150.96
771.36	1218.54
771.54	1310.70
771.73	1177.58
771.92	1286.12
772.10	1247.21
772.29	1249.26
772.48	1286.12
772.67	1298.41
772.85	1267.69
773.04	1206.25
773.23	1263.60
773.41	1183.73
773.60	1292.27
773.79	1255.40
773.97	1220.59
774.16	1132.53
774.35	1202.16
774.53	1239.02
774.72	1234.93
774.91	1249.26
775.09	1181.68
775.28	1290.22
775.47	1247.21
775.65	1273.84
775.84	1265.64
776.02	1263.60
776.21	1251.31
776.40	1361.90
776.58	1271.79
776.77	1255.40
776.96	1247.21
777.14	1245.16
777.33	1224.69
777.52	1206.25
777.70	1286.12
777.89	1243.12
778.07	1271.79
778.26	1261.55
778.45	1218.54
778.63	1269.74
778.82	1255.40
779.01	1230.83
779.19	1230.83
779.38	1314.80
779.56	1177.58
779.75	1218.54
779.94	1153.01
780.12	1294.32
780.31	1361.90
780.50	1204.21
780.68	1212.40
780.87	1196.01
781.05	1224.69
781.24	1253.36
781.43	1255.40
781.61	1253.36
781.80	1259.50
781.98	1210.35
782.17	1247.21
782.36	1261.55
782.54	1234.93
782.73	1167.34
782.91	1234.93
783.10	1234.93
783.29	1216.49
783.47	1290.22
783.66	1210.35
783.84	1257.45
784.03	1228.78
784.21	1189.87
784.40	1263.60
784.59	1228.78
784.77	1322.99
784.96	1220.59
785.14	1259.50
785.33	1263.60
785.51	1259.50
785.70	1218.54
785.89	1210.35
786.07	1210.35
786.26	1308.65
786.44	1212.40
786.63	1230.83
786.81	1247.21
787.00	1275.88
787.18	1259.50
787.37	1243.12
787.56	1214.45
787.74	1214.45
787.93	1267.69
788.11	1204.21
788.30	1292.27
788.48	1294.32
788.67	1204.21
788.85	1265.64
789.04	1322.99
789.22	1286.12
789.41	1239.02
789.60	1226.73
789.78	1210.35
789.97	1273.84
790.15	1288.17
790.34	1320.94
790.52	1288.17
790.71	1222.64
790.89	1216.49
791.08	1218.54
791.26	1275.88
791.45	1290.22
791.63	1212.40
791.82	1191.92
792.00	1243.12
792.19	1347.56
792.37	1226.73
792.56	1269.74
792.74	1253.36
792.93	1277.93
793.11	1255.40
793.30	1255.40
793.48	1230.83
793.67	1230.83
793.85	1232.88
794.04	1239.02
794.22	1308.65
794.41	1185.77
794.59	1202.16
794.78	1327.08
794.96	1181.68
795.15	1218.54
795.33	1247.21
795.52	1226.73
795.70	1271.79
795.89	1279.98
796.07	1167.34
796.26	1327.08
796.44	1275.88
796.63	1189.87
796.81	1212.40
796.99	1327.08
797.18	1214.45
797.36	1316.84
797.55	1419.24
797.73	1259.50
797.92	1167.34
798.10	1220.59
798.29	1259.50
798.47	1306.60
798.66	1343.47
798.84	1202.16
799.02	1288.17
799.21	1294.32
799.39	1204.21
799.58	1218.54
799.76	1189.87
799.95	1304.56
800.13	1290.22
800.32	1153.01
800.50	1204.21
800.68	1220.59
800.87	1320.94
801.05	1206.25
801.24	1279.98
801.42	1155.05
801.61	1204.21
801.79	1253.36
801.97	1210.35
802.16	1275.88
802.34	1279.98
802.53	1279.98
802.71	1218.54
802.90	1239.02
803.08	1275.88
803.26	1236.97
803.45	1114.10
803.63	1198.06
803.82	1257.45
804.00	1185.77
804.18	1226.73
804.37	1222.64
804.55	1368.04
804.74	1236.97
804.92	1232.88
805.10	1222.64
805.29	1183.73
805.47	1224.69
805.66	1302.51
805.84	1261.55
806.02	1218.54
806.21	1257.45
806.39	1265.64
806.57	1300.46
806.76	1314.80
806.94	1275.88
807.13	1286.12
807.31	1146.86
807.49	1282.03
807.68	1155.05
807.86	1210.35
808.04	1236.97
808.23	1224.69
808.41	1284.08
808.60	1099.76
808.78	1222.64
808.96	1290.22
809.15	1212.40
809.33	1218.54
809.51	1177.58
809.70	1265.64
809.88	1204.21
810.06	1208.30
810.25	1243.12
810.43	1267.69
810.61	1239.02
810.80	1210.35
810.98	1372.14
811.17	1273.84
811.35	1335.28
811.53	1218.54
811.72	1206.25
811.90	1204.21
812.08	1251.31
812.27	1200.11
812.45	1320.94
812.63	1236.97
812.82	1312.75
813.00	1210.35
813.18	1247.21
813.36	1245.16
813.55	1216.49
813.73	1241.07
813.91	1122.29
814.10	1239.02
814.28	1220.59
814.46	1216.49
814.65	1243.12
814.83	1210.35
815.01	1228.78
815.20	1249.26
815.38	1282.03
815.56	1230.83
815.75	1353.71
815.93	1243.12
816.11	1153.01
816.29	1259.50
816.48	1243.12
816.66	1236.97
816.84	1167.34
817.03	1241.07
817.21	1210.35
817.39	1206.25
817.57	1196.01
817.76	1200.11
817.94	1345.52
818.12	1236.97
818.31	1245.16
818.49	1216.49
818.67	1304.56
818.85	1191.92
819.04	1251.31
819.22	1245.16
819.40	1286.12
819.58	1210.35
819.77	1263.60
819.95	1187.82
820.13	1253.36
820.31	1228.78
820.50	1247.21
820.68	1314.80
820.86	1357.80
821.04	1257.45
821.23	1322.99
821.41	1163.25
821.59	1251.31
821.77	1239.02
821.96	1302.51
822.14	1218.54
822.32	1218.54
822.50	1239.02
822.69	1267.69
822.87	1279.98
823.05	1169.39
823.23	1271.79
823.42	1232.88
823.60	1234.93
823.78	1261.55
823.96	1167.34
824.15	1284.08
824.33	1220.59
824.51	1314.80
824.69	1288.17
824.87	1286.12
825.06	1253.36
825.24	1204.21
825.42	1173.49
825.60	1222.64
825.78	1239.02
825.97	1198.06
826.15	1173.49
826.33	1277.93
826.51	1249.26
826.69	1337.32
826.88	1279.98
827.06	1224.69
827.24	1226.73
827.42	1249.26
827.60	1193.97
827.79	1200.11
827.97	1271.79
828.15	1226.73
828.33	1216.49
828.51	1236.97
828.70	1206.25
828.88	1202.16
829.06	1226.73
829.24	1212.40
829.42	1202.16
829.60	1257.45
829.79	1304.56
829.97	1210.35
830.15	1331.18
830.33	1230.83
830.51	1363.95
830.69	1239.02
830.88	1224.69
831.06	1243.12
831.24	1286.12
831.42	1357.80
831.60	1202.16
831.78	1212.40
831.97	1222.64
832.15	1220.59
832.33	1230.83
832.51	1304.56
832.69	1249.26
832.87	1232.88
833.05	1193.97
833.24	1185.77
833.42	1183.73
833.60	1302.51
833.78	1255.40
833.96	1263.60
834.14	1232.88
834.32	1191.92
834.51	1159.15
834.69	1292.27
834.87	1243.12
835.05	1255.40
835.23	1279.98
835.41	1243.12
835.59	1261.55
835.77	1261.55
835.95	1249.26
836.14	1261.55
836.32	1245.16
836.50	1128.43
836.68	1267.69
836.86	1161.20
837.04	1259.50
837.22	1204.21
837.40	1146.86
837.58	1263.60
837.77	1187.82
837.95	1185.77
838.13	1353.71
838.31	1249.26
838.49	1265.64
838.67	1150.96
838.85	1214.45
839.03	1310.70
839.21	1265.64
839.39	1253.36
839.57	1271.79
839.76	1134.57
839.94	1286.12
840.12	1310.70
840.30	1267.69
840.48	1230.83
840.66	1267.69
840.84	1189.87
841.02	1320.94
841.20	1261.55
841.38	1249.26
841.56	1265.64
841.74	1294.32
841.92	1306.60
842.10	1251.31
842.28	1196.01
842.47	1249.26
842.65	1204.21
842.83	1259.50
843.01	1251.31
843.19	1345.52
843.37	1271.79
843.55	1193.97
843.73	1277.93
843.91	1198.06
844.09	1290.22
844.27	1193.97
844.45	1243.12
844.63	1286.12
844.81	1349.61
844.99	1212.40
845.17	1282.03
845.35	1251.31
845.53	1216.49
845.71	1292.27
845.89	1271.79
846.07	1267.69
846.25	1243.12
846.43	1269.74
846.61	1179.63
846.79	1202.16
846.97	1300.46
847.15	1249.26
847.33	1261.55
847.51	1263.60
847.69	1337.32
847.87	1247.21
848.05	1273.84
848.23	1167.34
848.41	1226.73
848.59	1212.40
848.77	1198.06
848.95	1236.97
849.13	1230.83
849.31	1191.92
849.49	1198.06
849.67	1179.63
849.85	1236.97
850.03	1249.26
850.21	1269.74
850.39	1298.41
850.57	1253.36
850.75	1185.77
850.93	1257.45
851.11	1202.16
851.29	1187.82
851.47	1239.02
851.65	1257.45
851.83	1282.03
852.01	1257.45
852.19	1316.84
852.37	1269.74
852.55	1243.12
852.73	1279.98
852.91	1165.29
853.09	1263.60
853.27	1202.16
853.45	1263.60
853.63	1177.58
853.81	1255.40
853.98	1325.04
854.16	1189.87
854.34	1255.40
854.52	1302.51
854.70	1310.70
854.88	1189.87
855.06	1181.68
855.24	1247.21
855.42	1275.88
855.60	1169.39
855.78	1239.02
855.96	1253.36
856.14	1173.49
856.32	1189.87
856.50	1155.05
856.67	1257.45
856.85	1259.50
857.03	1300.46
857.21	1212.40
857.39	1239.02
857.57	1165.29
857.75	1220.59
857.93	1218.54
858.11	1296.36
858.29	1169.39
858.47	1198.06
858.64	1288.17
858.82	1226.73
859.00	1261.55
859.18	1279.98
859.36	1255.40
859.54	1288.17
859.72	1179.63
859.90	1236.97
860.08	1208.30
860.26	1230.83
860.43	1259.50
860.61	1214.45
860.79	1308.65
860.97	1241.07
861.15	1269.74
861.33	1245.16
861.51	1222.64
861.69	1243.12
861.86	1288.17
862.04	1206.25
862.22	1177.58
862.40	1251.31
862.58	1214.45
862.76	1171.44
862.94	1298.41
863.11	1218.54
863.29	1230.83
863.47	1247.21
863.65	1255.40
863.83	1196.01
864.01	1163.25
864.19	1224.69
864.36	1155.05
864.54	1196.01
864.72	1220.59
864.90	1255.40
865.08	1304.56
865.26	1204.21
865.43	1265.64
865.61	1271.79
865.79	1284.08
865.97	1253.36
866.15	1210.35
866.33	1187.82
866.50	1335.28
866.68	1288.17
866.86	1234.93
867.04	1202.16
867.22	1269.74
867.40	1214.45
867.57	1271.79
867.75	1265.64
867.93	1214.45
868.11	1304.56
868.29	1198.06
868.46	1286.12
868.64	1177.58
868.82	1232.88
869.00	1306.60
869.18	1269.74
869.35	1292.27
869.53	1218.54
869.71	1329.13
869.89	1296.36
870.07	1230.83
870.24	1253.36
870.42	1284.08
870.60	1298.41
870.78	1298.41
870.96	1212.40
871.13	1257.45
871.31	1286.12
871.49	1267.69
871.67	1290.22
871.84	1251.31
872.02	1269.74
872.20	1222.64
872.38	1431.53
872.56	1355.76
872.73	1218.54
872.91	1236.97
873.09	1204.21
873.27	1269.74
873.44	1269.74
873.62	1204.21
873.80	1253.36
873.98	1284.08
874.15	1226.73
874.33	1320.94
874.51	1224.69
874.69	1226.73
874.86	1316.84
875.04	1243.12
875.22	1275.88
875.40	1173.49
875.57	1255.40
875.75	1232.88
875.93	1212.40
876.11	1185.77
876.28	1277.93
876.46	1177.58
876.64	1222.64
876.81	1279.98
876.99	1314.80
877.17	1196.01
877.35	1243.12
877.52	1255.40
877.70	1277.93
877.88	1204.21
878.05	1220.59
878.23	1220.59
878.41	1277.93
878.59	1226.73
878.76	1333.23
878.94	1316.84
879.12	1236.97
879.29	1253.36
879.47	1279.98
879.65	1222.64
879.83	1259.50
880.00	1222.64
880.18	1200.11
880.36	1249.26
880.53	1269.74
880.71	1214.45
880.89	1253.36
881.06	1228.78
881.24	1294.32
881.42	1308.65
881.59	1341.42
881.77	1228.78
881.95	1267.69
882.12	1206.25
882.30	1220.59
882.48	1206.25
882.65	1284.08
882.83	1185.77
883.01	1247.21
883.18	1306.60
883.36	1300.46
883.54	1173.49
883.71	1255.40
883.89	1191.92
884.07	1230.83
884.24	1306.60
884.42	1177.58
884.60	1320.94
884.77	1165.29
884.95	1173.49
885.13	1232.88
885.30	1169.39
885.48	1284.08
885.66	1241.07
885.83	1224.69
886.01	1269.74
886.18	1261.55
886.36	1253.36
886.54	1232.88
886.71	1261.55
886.89	1292.27
887.07	1173.49
887.24	1265.64
887.42	1185.77
887.59	1232.88
887.77	1304.56
887.95	1247.21
888.12	1335.28
888.30	1198.06
888.48	1220.59
888.65	1267.69
888.83	1282.03
889.00	1296.36
889.18	1275.88
889.36	1245.16
889.53	1222.64
889.71	1300.46
889.88	1218.54
890.06	1245.16
890.24	1302.51
890.41	1196.01
890.59	1331.18
890.76	1261.55
890.94	1279.98
891.12	1329.13
891.29	1247.21
891.47	1165.29
891.64	1228.78
891.82	1198.06
891.99	1290.22
892.17	1218.54
892.35	1220.59
892.52	1202.16
892.70	1202.16
892.87	1253.36
893.05	1345.52
893.22	1167.34
893.40	1284.08
893.58	1316.84
893.75	1191.92
893.93	1218.54
894.10	1159.15
894.28	1386.47
894.45	1333.23
894.63	1232.88
894.80	1210.35
894.98	1261.55
895.15	1239.02
895.33	1155.05
895.51	1208.30
895.68	1234.93
895.86	1226.73
896.03	1138.67
896.21	1302.51
896.38	1318.89
896.56	1204.21
896.73	1282.03
896.91	1273.84
897.08	1292.27
897.26	1236.97
897.43	1222.64
897.61	1277.93
897.78	1234.93
897.96	1206.25
898.13	1167.34
898.31	1265.64
898.48	1234.93
898.66	1296.36
898.83	1232.88
899.01	1210.35
899.19	1165.29
899.36	1271.79
899.54	1384.43
899.71	1234.93
899.89	1275.88
900.06	1277.93
900.23	1208.30
900.41	1249.26
900.58	1236.97
900.76	1138.67
900.93	1339.37
901.11	1239.02
901.28	1273.84
901.46	1208.30
901.63	1179.63
901.81	1320.94
901.98	1306.60
902.16	1273.84
902.33	1310.70
902.51	1200.11
902.68	1208.30
902.86	1202.16
903.03	1396.71
903.21	1204.21
903.38	1247.21
903.56	1294.32
903.73	1277.93
903.90	1187.82
904.08	1230.83
904.25	1265.64
904.43	1239.02
904.60	1251.31
904.78	1202.16
904.95	1267.69
905.13	1320.94
905.30	1183.73
905.47	1236.97
905.65	1277.93
905.82	1288.17
906.00	1185.77
906.17	1230.83
906.35	1210.35
906.52	1232.88
906.70	1189.87
906.87	1255.40
907.04	1169.39
907.22	1273.84
907.39	1216.49
907.57	1232.88
907.74	1173.49
907.91	1216.49
908.09	1267.69
908.26	1247.21
908.44	1183.73
908.61	1165.29
908.78	1257.45
908.96	1236.97
909.13	1241.07
909.31	1251.31
909.48	1187.82
909.66	1345.52
909.83	1288.17
910.00	1273.84
910.18	1374.19
910.35	1245.16
910.52	1144.81
910.70	1245.16
910.87	1279.98
911.05	1208.30
911.22	1216.49
911.39	1263.60
911.57	1249.26
911.74	1312.75
911.92	1302.51
912.09	1357.80
912.26	1251.31
912.44	1202.16
912.61	1239.02
912.78	1234.93
912.96	1191.92
913.13	1153.01
913.30	1159.15
913.48	1298.41
913.65	1302.51
913.83	1234.93
914.00	1234.93
914.17	1200.11
914.35	1265.64
914.52	1212.40
914.69	1239.02
914.87	1220.59
915.04	1243.12
915.21	1214.45
915.39	1335.28
915.56	1292.27
915.73	1222.64
915.91	1245.16
916.08	1204.21
916.25	1179.63
916.43	1257.45
916.60	1220.59
916.77	1286.12
916.95	1267.69
917.12	1210.35
917.29	1177.58
917.47	1183.73
917.64	1243.12
917.81	1327.08
917.98	1269.74
918.16	1261.55
918.33	1273.84
918.50	1269.74
918.68	1269.74
918.85	1279.98
919.02	1224.69
919.20	1173.49
919.37	1282.03
919.54	1200.11
919.72	1232.88
919.89	1249.26
920.06	1277.93
920.23	1275.88
920.41	1220.59
920.58	1232.88
920.75	1226.73
920.93	1210.35
921.10	1261.55
921.27	1196.01
921.44	1300.46
921.62	1279.98
921.79	1318.89
921.96	1196.01
922.13	1322.99
922.31	1269.74
922.48	1193.97
922.65	1275.88
922.82	1218.54
923.00	1292.27
923.17	1247.21
923.34	1228.78
923.52	1306.60
923.69	1234.93
923.86	1294.32
924.03	1257.45
924.21	1165.29
924.38	1261.55
924.55	1267.69
924.72	1239.02
924.89	1232.88
925.07	1181.68
925.24	1230.83
925.41	1284.08
925.58	1325.04
925.76	1294.32
925.93	1265.64
926.10	1277.93
926.27	1284.08
926.45	1234.93
926.62	1325.04
926.79	1196.01
926.96	1241.07
927.13	1234.93
927.31	1368.04
927.48	1259.50
927.65	1255.40
927.82	1179.63
927.99	1247.21
928.17	1222.64
928.34	1220.59
928.51	1218.54
928.68	1214.45
928.86	1284.08
929.03	1292.27
929.20	1314.80
929.37	1265.64
929.54	1251.31
929.71	1247.21
929.89	1316.84
930.06	1259.50
930.23	1255.40
930.40	1236.97
930.57	1247.21
930.75	1279.98
930.92	1183.73
931.09	1245.16
931.26	1226.73
931.43	1216.49
931.60	1167.34
931.78	1230.83
931.95	1226.73
932.12	1198.06
932.29	1259.50
932.46	1259.50
932.63	1277.93
932.81	1208.30
932.98	1210.35
933.15	1312.75
933.32	1255.40
933.49	1230.83
933.66	1226.73
933.83	1275.88
934.01	1239.02
934.18	1275.88
934.35	1228.78
934.52	1245.16
934.69	1294.32
934.86	1294.32
935.03	1230.83
935.21	1251.31
935.38	1279.98
935.55	1222.64
935.72	1241.07
935.89	1253.36
936.06	1284.08
936.23	1230.83
936.40	1259.50
936.58	1239.02
936.75	1202.16
936.92	1214.45
937.09	1226.73
937.26	1273.84
937.43	1239.02
937.60	1216.49
937.77	1239.02
937.94	1292.27
938.12	1224.69
938.29	1226.73
938.46	1173.49
938.63	1325.04
938.80	1236.97
938.97	1343.47
939.14	1241.07
939.31	1202.16
939.48	1245.16
939.65	1331.18
939.82	1267.69
940.00	1288.17
940.17	1265.64
940.34	1271.79
940.51	1191.92
940.68	1302.51
940.85	1216.49
941.02	1275.88
941.19	1368.04
941.36	1267.69
941.53	1318.89
941.70	1216.49
941.87	1226.73
942.04	1179.63
942.21	1347.56
942.38	1269.74
942.55	1232.88
942.73	1314.80
942.90	1226.73
943.07	1159.15
943.24	1189.87
943.41	1265.64
943.58	1279.98
943.75	1284.08
943.92	1261.55
944.09	1294.32
944.26	1230.83
944.43	1214.45
944.60	1224.69
944.77	1253.36
944.94	1150.96
945.11	1189.87
945.28	1245.16
945.45	1191.92
945.62	1273.84
945.79	1173.49
945.96	1191.92
946.13	1177.58
946.30	1538.02
946.47	1302.51
946.64	1198.06
946.81	1241.07
946.98	1210.35
947.15	1212.40
947.32	1345.52
947.49	1259.50
947.66	1212.40
947.83	1163.25
948.00	1257.45
948.17	1181.68
948.34	1185.77
948.51	1241.07
948.68	1173.49
948.85	1198.06
949.02	1329.13
949.19	1257.45
949.36	1239.02
949.53	1247.21
949.70	1327.08
949.87	1312.75
950.04	1298.41
950.21	1419.24
950.38	1089.52
950.55	1339.37
950.72	1322.99
950.89	1155.05
951.06	1243.12
951.23	1304.56
951.40	1286.12
951.57	1236.97
951.74	1218.54
951.91	1175.53
952.08	1208.30
952.24	1177.58
952.41	1269.74
952.58	1255.40
952.75	1282.03
952.92	1257.45
953.09	1214.45
953.26	1206.25
953.43	1290.22
953.60	1204.21
953.77	1267.69
953.94	1261.55
954.11	1196.01
954.28	1318.89
954.45	1239.02
954.62	1230.83
954.78	1171.44
954.95	1226.73
955.12	1206.25
955.29	1275.88
955.46	1255.40
955.63	1214.45
955.80	1193.97
955.97	1292.27
956.14	1286.12
956.31	1255.40
956.48	1290.22
956.64	1257.45
956.81	1255.40
956.98	1230.83
957.15	1286.12
957.32	1187.82
957.49	1212.40
957.66	1206.25
957.83	1251.31
958.00	1226.73
958.16	1273.84
958.33	1261.55
958.50	1232.88
958.67	1257.45
958.84	1312.75
959.01	1155.05
959.18	1273.84
959.35	1150.96
959.52	1226.73
959.68	1236.97
959.85	1185.77
960.02	1236.97
960.19	1128.43
960.36	1392.62
960.53	1282.03
960.70	1247.21
960.86	1185.77
961.03	1269.74
961.20	1210.35
961.37	1267.69
961.54	1216.49
961.71	1290.22
961.87	1247.21
962.04	1189.87
962.21	1259.50
962.38	1177.58
962.55	1218.54
962.72	1202.16
962.88	1255.40
963.05	1241.07
963.22	1239.02
963.39	1189.87
963.56	1241.07
963.73	1175.53
963.89	1185.77
964.06	1261.55
964.23	1253.36
964.40	1290.22
964.57	1226.73
964.74	1306.60
964.90	1206.25
965.07	1189.87
965.24	1236.97
965.41	1251.31
965.58	1277.93
965.74	1290.22
965.91	1239.02
966.08	1173.49
966.25	1228.78
966.42	1286.12
966.58	1153.01
966.75	1226.73
966.92	1257.45
967.09	1234.93
967.25	1222.64
967.42	1286.12
967.59	1253.36
967.76	1296.36
967.93	1216.49
968.09	1259.50
968.26	1275.88
968.43	1222.64
968.60	1273.84
968.76	1220.59
968.93	1216.49
969.10	1255.40
969.27	1271.79
969.43	1226.73
969.60	1255.40
969.77	1243.12
969.94	1222.64
970.10	1222.64
970.27	1267.69
970.44	1251.31
970.61	1322.99
970.77	1216.49
970.94	1218.54
971.11	1255.40
971.28	1288.17
971.44	1298.41
971.61	1198.06
971.78	1341.42
971.95	1302.51
972.11	1236.97
972.28	1261.55
972.45	1253.36
972.62	1290.22
972.78	1267.69
972.95	1236.97
973.12	1255.40
973.28	1130.48
973.45	1267.69
973.62	1200.11
973.79	1316.84
973.95	1290.22
974.12	1271.79
974.29	1243.12
974.45	1249.26
974.62	1298.41
974.79	1267.69
974.95	1355.76
975.12	1196.01
975.29	1220.59
975.46	1214.45
975.62	1263.60
975.79	1216.49
975.96	1251.31
976.12	1239.02
976.29	1265.64
976.46	1355.76
976.62	1173.49
976.79	1286.12
976.96	1251.31
977.12	1234.93
977.29	1202.16
977.46	1245.16
977.62	1200.11
977.79	1222.64
977.96	1226.73
978.12	1234.93
978.29	1230.83
978.46	1177.58
978.62	1279.98
978.79	1230.83
978.96	1185.77
979.12	1153.01
979.29	1204.21
979.46	1212.40
979.62	1263.60
979.79	1269.74
979.96	1232.88
980.12	1298.41
980.29	1269.74
980.45	1318.89
980.62	1208.30
980.79	1234.93
980.95	1286.12
981.12	1267.69
981.29	1204.21
981.45	1200.11
981.62	1175.53
981.78	1314.80
981.95	1226.73
982.12	1261.55
982.28	1267.69
982.45	1310.70
982.62	1165.29
982.78	1232.88
982.95	1171.44
983.11	1337.32
983.28	1294.32
983.45	1226.73
983.61	1361.90
983.78	1329.13
983.94	1230.83
984.11	1191.92
984.28	1187.82
984.44	1226.73
984.61	1241.07
984.77	1230.83
984.94	1300.46
985.10	1255.40
985.27	1251.31
985.44	1226.73
985.60	1247.21
985.77	1234.93
985.93	1372.14
986.10	1263.60
986.26	1243.12
986.43	1155.05
986.60	1316.84
986.76	1265.64
986.93	1300.46
987.09	1257.45
987.26	1208.30
987.42	1269.74
987.59	1175.53
987.76	1271.79
987.92	1239.02
988.09	1261.55
988.25	1185.77
988.42	1222.64
988.58	1306.60
988.75	1357.80
988.91	1253.36
989.08	1198.06
989.24	1208.30
989.41	1232.88
989.57	1370.09
989.74	1298.41
989.91	1234.93
990.07	1228.78
990.24	1257.45
990.40	1222.64
990.57	1292.27
990.73	1245.16
990.90	1210.35
991.06	1279.98
991.23	1234.93
991.39	1232.88
991.56	1234.93
991.72	1243.12
991.89	1259.50
992.05	1308.65
992.22	1279.98
992.38	1204.21
992.55	1228.78
992.71	1257.45
992.88	1210.35
993.04	1193.97
993.21	1189.87
993.37	1251.31
993.54	1210.35
993.70	1282.03
993.87	1210.35
994.03	1267.69
994.20	1275.88
994.36	1263.60
994.53	1241.07
994.69	1185.77
994.85	1269.74
995.02	1179.63
995.18	1300.46
995.35	1300.46
995.51	1269.74
995.68	1312.75
995.84	1157.10
996.01	1255.40
996.17	1185.77
996.34	1325.04
996.50	1232.88
996.67	1226.73
996.83	1255.40
996.99	1187.82
997.16	1349.61
997.32	1204.21
997.49	1216.49
997.65	1159.15
997.82	1228.78
997.98	1224.69
998.14	1191.92
998.31	1284.08
998.47	1234.93
998.64	1279.98
998.80	1230.83
998.97	1198.06
999.13	1234.93
999.29	1245.16
999.46	1300.46
999.62	1212.40
999.79	1247.21
999.95	1259.50
1000.12	1251.31
1000.28	1273.84
1000.44	1236.97
1000.61	1290.22
1000.77	1234.93
1000.94	1304.56
1001.10	1277.93
1001.26	1312.75
1001.43	1261.55
1001.59	1230.83
1001.75	1236.97
1001.92	1191.92
1002.08	1239.02
1002.25	1249.26
1002.41	1257.45
1002.57	1265.64
1002.74	1243.12
1002.90	1236.97
1003.07	1267.69
1003.23	1222.64
1003.39	1310.70
1003.56	1279.98
1003.72	1212.40
1003.88	1202.16
1004.05	1210.35
1004.21	1253.36
1004.37	1228.78
1004.54	1269.74
1004.70	1351.66
1004.87	1290.22
1005.03	1212.40
1005.19	1146.86
1005.36	1239.02
1005.52	1265.64
1005.68	1239.02
1005.85	1198.06
1006.01	1234.93
1006.17	1200.11
1006.34	1187.82
1006.50	1286.12
1006.66	1327.08
1006.83	1269.74
1006.99	1316.84
1007.15	1279.98
1007.32	1193.97
1007.48	1257.45
1007.64	1167.34
1007.81	1193.97
1007.97	1226.73
1008.13	1245.16
1008.30	1275.88
1008.46	1228.78
1008.62	1277.93
1008.78	1146.86
1008.95	1193.97
1009.11	1187.82
1009.27	1341.42
1009.44	1251.31
1009.60	1273.84
1009.76	1191.92
1009.93	1196.01
1010.09	1228.78
1010.25	1271.79
1010.41	1273.84
1010.58	1286.12
1010.74	1372.14
1010.90	1163.25
1011.07	1243.12
1011.23	1196.01
1011.39	1261.55
1011.55	1212.40
1011.72	1216.49
1011.88	1310.70
1012.04	1212.40
1012.20	1189.87
1012.37	1206.25
1012.53	1296.36
1012.69	1218.54
1012.86	1222.64
1013.02	1247.21
1013.18	1304.56
1013.34	1296.36
1013.51	1320.94
1013.67	1232.88
1013.83	1255.40
1013.99	1267.69
1014.16	1310.70
1014.32	1228.78
1014.48	1177.58
1014.64	1316.84
1014.80	1187.82
1014.97	1243.12
1015.13	1169.39
1015.29	1267.69
1015.45	1206.25
1015.62	1273.84
1015.78	1216.49
1015.94	1286.12
1016.10	1220.59
1016.27	1277.93
1016.43	1269.74
1016.59	1267.69
1016.75	1191.92
1016.91	1234.93
1017.08	1204.21
1017.24	1255.40
1017.40	1222.64
1017.56	1277.93
1017.72	1267.69
1017.89	1230.83
1018.05	1279.98
1018.21	1236.97
1018.37	1318.89
1018.53	1220.59
1018.70	1196.01
1018.86	1214.45
1019.02	1243.12
1019.18	1310.70
1019.34	1275.88
1019.50	1239.02
1019.67	1247.21
1019.83	1222.64
1019.99	1271.79
1020.15	1161.20
1020.31	1214.45
1020.48	1261.55
1020.64	1224.69
1020.80	1239.02
1020.96	1282.03
1021.12	1296.36
1021.28	1236.97
1021.44	1187.82
1021.61	1226.73
1021.77	1277.93
1021.93	1312.75
1022.09	1234.93
1022.25	1290.22
1022.41	1193.97
1022.58	1261.55
1022.74	1247.21
1022.90	1259.50
1023.06	1224.69
1023.22	1239.02
1023.38	1236.97
1023.54	1353.71
1023.70	1226.73
1023.87	1335.28
1024.03	1302.51
1024.19	1239.02
1024.35	1159.15
1024.51	1236.97
1024.67	1228.78
1024.83	1222.64
1024.99	1294.32
1025.16	1245.16
1025.32	1150.96
1025.48	1236.97
1025.64	1175.53
1025.80	1329.13
1025.96	1226.73
1026.12	1284.08
1026.28	1239.02
1026.44	1279.98
1026.60	1353.71
1026.77	1187.82
1026.93	1255.40
1027.09	1204.21
1027.25	1290.22
1027.41	1267.69
1027.57	1220.59
1027.73	1206.25
1027.89	1271.79
1028.05	1257.45
1028.21	1261.55
1028.37	1271.79
1028.53	1226.73
1028.70	1140.72
1028.86	1300.46
1029.02	1239.02
1029.18	1245.16
1029.34	1292.27
1029.50	1259.50
1029.66	1275.88
1029.82	1228.78
1029.98	1226.73
1030.14	1298.41
1030.30	1275.88
1030.46	1161.20
1030.62	1341.42
1030.78	1189.87
1030.94	1282.03
1031.10	1218.54
1031.26	1181.68
1031.42	1222.64
1031.58	1300.46
1031.74	1257.45
1031.90	1239.02
1032.07	1232.88
1032.23	1275.88
1032.39	1279.98
1032.55	1185.77
1032.71	1304.56
1032.87	1271.79
1033.03	1224.69
1033.19	1282.03
1033.35	1312.75
1033.51	1322.99
1033.67	1255.40
1033.83	1208.30
1033.99	1277.93
1034.15	1232.88
1034.31	1222.64
1034.47	1216.49
1034.63	1327.08
1034.79	1226.73
1034.95	1230.83
1035.11	1267.69
1035.27	1288.17
1035.43	1196.01
1035.59	1322.99
1035.75	1273.84
1035.91	1206.25
1036.07	1318.89
1036.23	1327.08
1036.39	1200.11
1036.54	1212.40
1036.70	1300.46
1036.86	1189.87
1037.02	1306.60
1037.18	1253.36
1037.34	1273.84
1037.50	1308.65
1037.66	1267.69
1037.82	1222.64
1037.98	1353.71
1038.14	1212.40
1038.30	1273.84
1038.46	1198.06
1038.62	1273.84