SpectraSuite Data File
++++++++++++++++++++++++++++++++++++
Date: Wed Jan 02 14:03:07 EST 2013
User: James
Dark Spectrum Present: No
Reference Spectrum Present: No
Number of Sampled Component Spectra: 1
Spectrometers: USB4C01400
Integration Time (usec): 100000 (USB4C01400)
Spectra Averaged: 1 (USB4C01400)
Boxcar Smoothing: 0 (USB4C01400)
Correct for Electrical Dark: No (USB4C01400)
Strobe/Lamp Enabled: No (USB4C01400)
Correct for Detector Non-linearity: No (USB4C01400)
Correct for Stray Light: No (USB4C01400)
Number of Pixels in Processed Spectrum: 3648
>>>>>Begin Processed Spectral Data<<<<<
345.93	1189.87
346.15	1189.87
346.36	1189.87
346.58	1159.15
346.79	1134.57
347.01	1370.09
347.22	1341.42
347.44	1339.37
347.65	1292.27
347.87	1241.07
348.08	1302.51
348.30	1261.55
348.51	1228.78
348.73	1363.95
348.94	1279.98
349.16	1333.23
349.37	1306.60
349.58	1253.36
349.80	1486.83
350.01	1435.63
350.23	1435.63
350.44	1386.47
350.66	1413.10
350.87	1435.63
351.09	1474.54
351.30	1404.91
351.52	1345.52
351.73	1404.91
351.95	1464.30
352.16	1415.15
352.38	1507.30
352.59	1468.39
352.80	1314.80
353.02	1421.29
353.23	1470.44
353.45	1464.30
353.66	1517.54
353.88	1458.15
354.09	1515.50
354.31	1464.30
354.52	1409.00
354.73	1564.65
354.95	1415.15
355.16	1540.07
355.38	1482.73
355.59	1470.44
355.81	1507.30
356.02	1421.29
356.24	1421.29
356.45	1429.48
356.66	1421.29
356.88	1538.02
357.09	1495.02
357.31	1456.11
357.52	1415.15
357.74	1372.14
357.95	1439.72
358.17	1478.63
358.38	1406.95
358.59	1515.50
358.81	1492.97
359.02	1406.95
359.24	1445.87
359.45	1431.53
359.66	1454.06
359.88	1333.23
360.09	1472.49
360.31	1384.43
360.52	1476.59
360.74	1425.39
360.95	1550.31
361.16	1501.16
361.38	1462.25
361.59	1423.34
361.81	1466.35
362.02	1476.59
362.23	1447.91
362.45	1394.67
362.66	1400.81
362.88	1456.11
363.09	1435.63
363.31	1384.43
363.52	1417.19
363.73	1456.11
363.95	1441.77
364.16	1570.79
364.38	1468.39
364.59	1400.81
364.80	1464.30
365.02	1456.11
365.23	1447.91
365.45	1384.43
365.66	1515.50
365.87	1445.87
366.09	1548.26
366.30	1490.92
366.51	1486.83
366.73	1482.73
366.94	1460.20
367.16	1406.95
367.37	1505.26
367.58	1466.35
367.80	1447.91
368.01	1433.58
368.23	1474.54
368.44	1529.83
368.65	1511.40
368.87	1509.35
369.08	1490.92
369.29	1499.11
369.51	1538.02
369.72	1564.65
369.94	1488.87
370.15	1447.91
370.36	1511.40
370.58	1546.22
370.79	1509.35
371.00	1470.44
371.22	1429.48
371.43	1445.87
371.64	1474.54
371.86	1456.11
372.07	1490.92
372.29	1462.25
372.50	1619.94
372.71	1456.11
372.93	1435.63
373.14	1398.76
373.35	1490.92
373.57	1564.65
373.78	1437.67
373.99	1411.05
374.21	1462.25
374.42	1480.68
374.63	1484.78
374.85	1437.67
375.06	1437.67
375.27	1454.06
375.49	1464.30
375.70	1527.78
375.91	1486.83
376.13	1384.43
376.34	1583.08
376.55	1501.16
376.77	1472.49
376.98	1456.11
377.19	1515.50
377.41	1458.15
377.62	1521.64
377.83	1439.72
378.05	1507.30
378.26	1587.18
378.47	1474.54
378.69	1470.44
378.90	1470.44
379.11	1462.25
379.33	1521.64
379.54	1540.07
379.75	1578.98
379.97	1482.73
380.18	1597.42
380.39	1476.59
380.61	1540.07
380.82	1435.63
381.03	1507.30
381.25	1527.78
381.46	1552.36
381.67	1523.69
381.89	1486.83
382.10	1505.26
382.31	1550.31
382.52	1472.49
382.74	1490.92
382.95	1521.64
383.16	1525.74
383.38	1578.98
383.59	1566.70
383.80	1550.31
384.02	1460.20
384.23	1589.22
384.44	1513.45
384.65	1458.15
384.87	1540.07
385.08	1478.63
385.29	1439.72
385.51	1521.64
385.72	1509.35
385.93	1523.69
386.14	1495.02
386.36	1585.13
386.57	1517.54
386.78	1558.50
387.00	1578.98
387.21	1523.69
387.42	1581.03
387.63	1554.41
387.85	1572.84
388.06	1478.63
388.27	1601.51
388.49	1558.50
388.70	1499.11
388.91	1501.16
389.12	1542.12
389.34	1607.66
389.55	1589.22
389.76	1589.22
389.97	1603.56
390.19	1581.03
390.40	1638.38
390.61	1617.90
390.82	1538.02
391.04	1583.08
391.25	1654.76
391.46	1728.49
391.68	1613.80
391.89	1607.66
392.10	1611.75
392.31	1621.99
392.53	1585.13
392.74	1652.71
392.95	1738.73
393.16	1652.71
393.38	1593.32
393.59	1562.60
393.80	1626.09
394.01	1611.75
394.23	1726.44
394.44	1658.85
394.65	1630.18
394.86	1665.00
395.07	1638.38
395.29	1781.73
395.50	1701.86
395.71	1777.64
395.92	1726.44
396.14	1667.05
396.35	1726.44
396.56	1671.14
396.77	1806.31
396.99	1720.29
397.20	1683.43
397.41	1802.21
397.62	1873.89
397.83	1826.79
398.05	1794.02
398.26	1787.88
398.47	1814.50
398.68	1830.88
398.90	1818.60
399.11	1757.16
399.32	1865.70
399.53	1855.46
399.74	1896.42
399.96	1777.64
400.17	1996.77
400.38	1982.43
400.59	1916.90
400.81	1837.03
401.02	1957.86
401.23	1923.04
401.44	2066.40
401.65	1964.00
401.87	1996.77
402.08	2097.12
402.29	2037.73
402.50	2074.59
402.71	2037.73
402.93	2035.68
403.14	2105.31
403.35	2146.27
403.56	2252.77
403.77	2060.26
403.99	2207.71
404.20	2279.39
404.41	2303.96
404.62	2346.97
404.83	2236.38
405.04	2222.05
405.26	2318.30
405.47	2400.22
405.68	2400.22
405.89	2406.36
406.10	2361.31
406.32	2392.03
406.53	2465.75
406.74	2568.15
406.95	2310.11
407.16	2533.34
407.37	2523.10
407.59	2576.34
407.80	2613.21
408.01	2635.74
408.22	2660.31
408.43	2590.68
408.64	2627.54
408.86	2709.46
409.07	2764.76
409.28	2668.50
409.49	2766.81
409.70	2832.34
409.91	2781.14
410.13	2877.40
410.34	2703.32
410.55	2893.78
410.76	2809.81
410.97	2887.64
411.18	2885.59
411.40	2932.69
411.61	2932.69
411.82	3008.47
412.03	3014.61
412.24	2867.16
412.45	2883.54
412.66	3014.61
412.88	3121.10
413.09	3106.77
413.30	3123.15
413.51	3168.21
413.72	3053.52
413.93	3215.31
414.14	3200.98
414.36	3184.59
414.57	3024.85
414.78	3162.06
414.99	3373.00
415.20	3121.10
415.41	3323.85
415.62	3225.55
415.83	3403.72
416.05	3352.52
416.26	3237.84
416.47	3323.85
416.68	3364.81
416.89	3344.33
417.10	3440.59
417.31	3291.09
417.52	3416.01
417.74	3258.32
417.95	3401.68
418.16	3504.07
418.37	3420.11
418.58	3563.47
418.79	3508.17
419.00	3467.21
419.21	3502.03
419.42	3547.08
419.64	3530.70
419.85	3491.79
420.06	3622.86
420.27	3684.30
420.48	3629.00
420.69	3649.48
420.90	3663.82
421.11	3741.64
421.32	3733.45
421.53	3641.29
421.75	3823.56
421.96	3860.42
422.17	3788.74
422.38	3903.43
422.59	3825.61
422.80	3915.72
423.01	3897.28
423.22	3995.59
423.43	3932.10
423.64	3921.86
423.85	3993.54
424.07	3913.67
424.28	4143.04
424.49	3944.39
424.70	4134.85
424.91	4087.75
425.12	4108.23
425.33	4087.75
425.54	4044.74
425.75	4184.00
425.96	4087.75
426.17	4014.02
426.38	4360.13
426.59	4319.17
426.81	4335.55
427.02	4220.86
427.23	4140.99
427.44	4171.71
427.65	4229.06
427.86	4255.68
428.07	4386.75
428.28	4335.55
428.49	4509.63
428.70	4638.65
428.91	4372.41
429.12	4603.83
429.33	4480.96
429.54	4569.02
429.75	4663.22
429.96	4528.06
430.17	4736.95
430.38	4747.19
430.60	4489.15
430.81	4657.08
431.02	4749.24
431.23	4806.58
431.44	4616.12
431.65	4648.89
431.86	4857.78
432.07	4937.65
432.28	4833.21
432.49	4865.97
432.70	4904.89
432.91	4765.62
433.12	4837.30
433.33	5068.72
433.54	4935.60
433.75	4970.42
433.96	4892.60
434.17	4976.56
434.38	5140.40
434.59	5103.54
434.80	5242.80
435.01	5298.10
435.22	5121.97
435.43	4992.95
435.64	5294.00
435.85	5300.14
436.06	5466.03
436.27	5412.78
436.48	5216.18
436.69	5535.66
436.90	5377.97
437.11	5316.53
437.32	5601.19
437.53	5509.04
437.74	5611.43
437.95	5351.34
438.16	5619.63
438.37	5449.64
438.58	5644.20
438.79	5539.76
439.00	5466.03
439.21	5601.19
439.42	5685.16
439.63	5658.54
439.84	5730.22
440.05	5826.47
440.26	5939.11
440.47	5879.72
440.68	5990.31
440.89	5859.24
441.10	5820.33
441.31	5887.91
441.52	5756.84
441.73	5797.80
441.94	5924.77
442.15	6158.24
442.36	6016.93
442.57	6107.04
442.78	6100.90
442.99	6074.28
443.20	6088.61
443.41	5994.40
443.62	5926.82
443.83	6121.38
444.04	6086.56
444.25	6076.32
444.46	6170.53
444.67	6162.34
444.88	6166.43
445.09	6240.16
445.30	6168.48
445.51	6471.58
445.72	6096.80
445.93	6317.98
446.14	6299.55
446.35	6250.40
446.56	6287.26
446.77	6422.43
446.98	6373.28
447.19	6545.31
447.39	6379.42
447.60	6475.68
447.81	6623.13
448.02	6508.44
448.23	6526.88
448.44	6666.14
448.65	6619.04
448.86	6655.90
449.07	6504.35
449.28	6723.48
449.49	6563.74
449.70	6846.36
449.91	6563.74
450.12	6799.26
450.33	6627.23
450.54	6961.05
450.75	6651.80
450.95	6811.54
451.16	7159.70
451.37	6821.78
451.58	7141.27
451.79	6844.31
452.00	7004.05
452.21	7108.50
452.42	7008.15
452.63	6877.08
452.84	6961.05
453.05	6967.19
453.26	7217.04
453.47	7094.16
453.68	7298.96
453.88	7358.35
454.09	7251.86
454.30	7346.06
454.51	7395.22
454.72	7567.24
454.93	7542.67
455.14	7468.94
455.35	7514.00
455.56	7491.47
455.77	7614.35
455.98	7729.03
456.18	7823.24
456.39	7401.36
456.60	7694.22
456.81	7798.66
457.02	7692.17
457.23	8034.18
457.44	7802.76
457.65	7778.19
457.86	8073.09
458.06	7921.54
458.27	8060.80
458.48	7960.45
458.69	8126.34
458.90	8378.24
459.11	8218.50
459.32	8312.71
459.53	8060.80
459.74	8255.36
459.94	8468.35
460.15	8257.41
460.36	8773.50
460.57	8626.04
460.78	8695.68
460.99	8664.96
461.20	8544.13
461.41	9039.73
461.61	8560.51
461.82	8714.11
462.03	8693.63
462.24	9135.99
462.45	9086.84
462.66	8781.69
462.87	9092.98
463.08	9213.81
463.28	9101.17
463.49	9209.72
463.70	9103.22
463.91	9031.54
464.12	9564.01
464.33	9138.04
464.54	9414.51
464.74	9584.49
464.95	9690.99
465.16	9797.48
465.37	9615.21
465.58	9490.29
465.79	9908.07
465.99	10033.00
466.20	10024.81
466.41	10184.55
466.62	10237.80
466.83	9959.27
467.04	10239.84
467.25	10434.40
467.45	10377.06
467.66	10446.69
467.87	10577.76
468.08	10637.15
468.29	10563.42
468.50	10415.97
468.70	10843.99
468.91	10764.12
469.12	10757.98
469.33	10860.38
469.54	10651.49
469.75	11001.69
469.95	10862.43
470.16	11056.98
470.37	11208.53
470.58	11241.30
470.79	11044.70
470.99	10964.82
471.20	11269.97
471.41	10979.16
471.62	11652.94
471.83	11755.34
472.03	11853.64
472.24	11665.23
472.45	11503.44
472.66	11921.23
472.87	11898.70
473.08	11931.47
473.28	11765.58
473.49	11962.19
473.70	12040.01
473.91	12181.32
474.12	12392.26
474.32	12449.60
474.53	12349.25
474.74	12373.83
474.95	12523.33
475.16	12519.23
475.36	12853.05
475.57	12656.45
475.78	12736.32
475.99	13217.59
476.19	12855.10
476.40	13078.33
476.61	12943.16
476.82	13035.32
477.03	13371.19
477.23	13430.58
477.44	13113.14
477.65	13395.76
477.86	13557.55
478.06	13625.14
478.27	13487.92
478.48	13610.80
478.69	13729.58
478.90	13569.84
479.10	13690.67
479.31	14098.22
479.52	13754.16
479.73	14049.07
479.93	14360.36
480.14	14350.12
480.35	14151.46
480.56	14167.85
480.76	14272.29
480.97	14550.82
481.18	14921.50
481.39	14987.04
481.59	14841.63
481.80	14944.03
482.01	14933.79
482.22	15177.50
482.42	15013.66
482.63	15152.92
482.84	14966.56
483.05	15085.34
483.25	15441.68
483.46	15662.86
483.67	15787.79
483.88	16088.84
484.08	15718.16
484.29	15552.27
484.50	16305.93
484.71	15752.98
484.91	16236.30
485.12	16316.17
485.33	16430.85
485.54	16547.59
485.74	16422.66
485.95	16682.75
486.16	16705.28
486.37	16713.47
486.57	16615.17
486.78	16856.83
486.99	16953.09
487.19	17319.67
487.40	17405.69
487.61	17751.79
487.82	17551.09
488.02	17637.11
488.23	17751.79
488.44	17991.41
488.64	17866.48
488.85	17987.31
489.06	18337.51
489.27	18357.99
489.47	18607.84
489.68	18433.77
489.89	18888.42
490.09	18661.09
490.30	18892.51
490.51	19197.66
490.71	19128.03
490.92	18951.90
491.13	19447.51
491.34	19494.61
491.54	19754.71
491.75	19486.42
491.96	19775.19
492.16	19711.70
492.37	20039.37
492.58	20365.00
492.78	19922.64
492.99	20274.89
493.20	20428.49
493.40	20590.28
493.61	20731.59
493.82	20575.94
494.03	20664.00
494.23	20991.68
494.44	21358.27
494.65	21157.57
494.85	21143.23
495.06	21616.31
495.27	21223.10
495.47	21540.54
495.68	21685.94
495.89	21606.07
496.09	21939.89
496.30	21888.69
496.51	22204.08
496.71	22013.62
496.92	22511.27
497.13	22611.62
497.33	22623.91
497.54	22736.55
497.75	22443.69
497.95	22886.05
498.16	23195.29
498.37	23213.73
498.57	23178.91
498.78	23191.20
498.98	23787.16
499.19	23391.90
499.40	23418.52
499.60	23922.32
499.81	24043.15
500.02	23905.94
500.22	24139.41
500.43	24043.15
500.64	24098.45
500.84	24592.01
501.05	24530.57
501.26	24448.65
501.46	24796.81
501.67	24628.87
501.87	25220.74
502.08	24684.17
502.29	25122.43
502.49	25073.28
502.70	25245.31
502.91	25597.56
503.11	25161.34
503.32	25763.45
503.52	26054.26
503.73	25915.00
503.94	25591.42
504.14	25761.40
504.35	25925.24
504.56	26332.78
504.76	26207.86
504.97	26470.00
505.17	26353.26
505.38	26693.22
505.59	26717.80
505.79	26844.77
506.00	27113.06
506.20	26394.22
506.41	27027.04
506.62	27254.37
506.82	27225.70
507.03	27065.96
507.23	27293.28
507.44	27809.37
507.65	27594.33
507.85	27637.34
508.06	27614.81
508.26	27700.83
508.47	27598.43
508.68	28028.50
508.88	27858.52
509.09	27922.01
509.29	28257.87
509.50	28210.77
509.71	28440.14
509.91	28386.89
510.12	28302.93
510.32	28663.37
510.53	28689.99
510.73	28524.11
510.94	28663.37
511.15	28761.67
511.35	28915.27
511.56	29120.07
511.76	28753.48
511.97	28884.55
512.18	29257.28
512.38	29355.58
512.59	29328.96
512.79	29058.63
513.00	28954.18
513.20	29421.12
513.41	29513.28
513.61	29259.33
513.82	30195.25
514.03	29834.81
514.23	29261.38
514.44	29417.02
514.64	30125.62
514.85	29474.37
515.05	30506.54
515.26	29654.59
515.46	29933.11
515.67	29713.98
515.88	30307.89
516.08	30160.44
516.29	30191.16
516.49	30139.96
516.70	30367.28
516.90	30207.54
517.11	30479.92
517.31	30484.01
517.52	30258.74
517.72	30475.82
517.93	30539.31
518.14	30592.56
518.34	30686.76
518.55	30584.37
518.75	30852.65
518.96	31043.11
519.16	30805.55
519.37	30985.77
519.57	30893.61
519.78	31004.20
519.98	31084.07
520.19	31473.18
520.39	31176.23
520.60	31092.26
520.80	31225.38
521.01	31016.49
521.21	31227.43
521.42	31145.51
521.62	31426.08
521.83	31254.05
522.03	31342.11
522.24	31530.53
522.44	31882.78
522.65	31421.98
522.85	31802.91
523.06	31381.03
523.26	31700.51
523.47	31622.69
523.67	31831.58
523.88	31739.42
524.08	31718.94
524.29	31995.42
524.49	31876.63
524.70	32052.76
524.90	31772.19
525.11	32083.48
525.31	32456.21
525.52	32058.90
525.72	32499.22
525.93	32318.99
526.13	32323.09
526.34	32507.41
526.54	32517.65
526.75	32448.02
526.95	32882.19
527.16	32337.43
527.36	32593.42
527.57	32390.67
527.77	32904.71
527.98	33031.69
528.18	32935.43
528.39	33003.02
528.59	33080.84
528.79	33256.96
529.00	33326.60
529.20	33525.25
529.41	33324.55
529.61	33203.72
529.82	33277.44
530.02	33435.14
530.23	33818.11
530.43	33091.08
530.64	33629.69
530.84	33480.19
531.05	33760.76
531.25	34039.29
531.45	33920.51
531.66	33930.75
531.86	34201.08
532.07	34403.83
532.27	34160.12
532.48	34463.22
532.68	34070.01
532.89	34588.14
533.09	34479.60
533.29	35116.52
533.50	34969.07
533.70	34977.26
533.91	34895.34
534.11	35048.94
534.32	34868.72
534.52	35155.43
534.72	35073.51
534.93	35349.99
535.13	35352.04
535.34	35522.02
535.54	35790.30
535.75	36066.78
535.95	35788.25
536.15	36095.45
536.36	36025.82
536.56	36195.80
536.77	35915.23
536.97	36328.92
537.18	36160.98
537.38	36632.02
537.58	36677.07
537.79	37039.56
537.99	36867.53
538.20	36578.77
538.40	37049.80
538.60	37627.33
538.81	37205.45
539.01	37359.05
539.22	37658.05
539.42	37133.77
539.62	37909.95
539.83	38268.34
540.03	37924.29
540.24	38237.62
540.44	38405.56
540.64	38477.24
540.85	38335.93
541.05	38321.59
541.26	39130.54
541.46	38694.32
541.66	38618.55
541.87	38614.45
542.07	39093.68
542.27	38874.54
542.48	39138.73
542.68	39329.19
542.89	39370.15
543.09	39749.03
543.29	39525.80
543.50	39884.19
543.70	39591.33
543.90	40209.82
544.11	40248.73
544.31	39959.97
544.52	40373.66
544.72	40236.44
544.92	40455.57
545.13	40910.22
545.33	40662.42
545.53	40899.98
545.74	41252.23
545.94	41305.48
546.14	41491.85
546.35	41524.61
546.55	41772.42
546.76	41944.45
546.96	41543.05
547.16	41469.32
547.37	41745.80
547.57	42290.55
547.77	41782.66
547.98	42212.73
548.18	42700.15
548.38	41954.69
548.59	42427.77
548.79	42521.98
548.99	42630.52
549.20	42560.89
549.40	43306.35
549.60	43087.21
549.81	42923.38
550.01	42988.91
550.21	43009.39
550.42	42831.22
550.62	43242.86
550.82	43918.69
551.03	43490.66
551.23	43904.35
551.43	43554.15
551.64	43478.38
551.84	43603.30
552.04	44270.94
552.25	43908.45
552.45	44012.90
552.65	44199.26
552.86	44141.92
553.06	43830.63
553.26	44254.56
553.46	44610.90
553.67	44107.10
553.87	44594.52
554.07	44617.05
554.28	44096.86
554.48	44674.39
554.68	44901.71
554.89	44920.15
555.09	44715.35
555.29	44825.94
555.50	45024.59
555.70	44877.14
555.90	44991.83
556.10	45245.77
556.31	45059.41
556.51	45401.42
556.71	45856.07
556.92	45444.43
557.12	45059.41
557.32	45563.21
557.52	45194.57
557.73	45137.23
557.93	45251.92
558.13	45747.53
558.34	45755.72
558.54	45223.25
558.74	45565.26
558.94	45747.53
559.15	45993.28
559.35	45573.45
559.55	45827.40
559.75	46038.34
559.96	45841.73
560.16	46073.15
560.36	45735.24
560.56	45860.16
560.77	46124.35
560.97	46546.23
561.17	46179.65
561.38	45882.69
561.58	46148.93
561.78	46011.71
561.98	45890.88
562.19	46404.92
562.39	46085.44
562.59	46513.47
562.79	46310.72
563.00	45909.32
563.20	45790.53
563.40	46255.42
563.60	46249.28
563.81	46341.44
564.01	46138.69
564.21	46531.90
564.41	46179.65
564.61	46341.44
564.82	46206.27
565.02	46665.02
565.22	46386.49
565.42	46552.38
565.63	46624.06
565.83	46490.94
566.03	46390.59
566.23	46628.15
566.44	46243.13
566.64	46744.89
566.84	46765.37
567.04	46343.48
567.24	47004.98
567.45	46900.53
567.65	46595.38
567.85	46161.22
568.05	46548.28
568.26	46847.29
568.46	46652.73
568.66	46720.31
568.86	46665.02
569.06	46871.86
569.27	47021.36
569.47	46525.75
569.67	47140.14
569.87	46775.61
570.07	47269.17
570.28	46884.15
570.48	46996.79
570.68	46929.20
570.88	47113.52
571.08	46517.56
571.29	46818.61
571.49	47275.31
571.69	46968.12
571.89	47166.77
572.09	47516.97
572.30	47291.69
572.50	47334.70
572.70	47291.69
572.90	47363.37
573.10	47402.28
573.30	47385.90
573.51	47275.31
573.71	47035.70
573.91	47240.50
574.11	47533.35
574.31	47768.87
574.51	47283.50
574.72	47635.75
574.92	47666.47
575.12	47553.83
575.32	47951.14
575.52	47965.48
575.72	47901.99
575.93	48102.69
576.13	47994.15
576.33	47793.45
576.53	48127.27
576.73	47713.58
576.93	48057.63
577.14	48135.46
577.34	48143.65
577.54	47990.05
577.74	48117.03
577.94	48297.25
578.14	47656.23
578.35	48551.20
578.55	48448.80
578.75	48340.25
578.95	48424.22
579.15	48420.13
579.35	49034.52
579.55	48934.17
579.75	48901.40
579.96	49259.79
580.16	49341.71
580.36	48932.12
580.56	49192.21
580.76	48997.65
580.96	49657.10
581.16	49196.31
581.37	49319.18
581.57	49591.56
581.77	49632.52
581.97	49886.47
582.17	49575.18
582.37	49497.36
582.57	49550.60
582.77	50144.51
582.97	50330.88
583.18	50093.32
583.38	50412.80
583.58	49847.56
583.78	50081.03
583.98	50824.44
584.18	50263.30
584.38	50756.86
584.58	50515.20
584.78	50652.41
584.99	50939.13
585.19	50730.23
585.39	50535.68
585.59	51049.72
585.79	51117.30
585.99	50953.46
586.19	51356.91
586.39	51424.50
586.59	51829.99
586.79	51545.33
587.00	51684.59
587.20	52104.42
587.40	51809.51
587.60	51870.95
587.80	51791.08
588.00	52466.91
588.20	52135.14
588.40	52382.94
588.60	52399.33
588.80	52020.45
589.00	52481.25
589.20	52604.13
589.40	52688.09
589.61	52630.75
589.81	52511.97
590.01	52600.03
590.21	53095.64
590.41	53099.73
590.61	53034.20
590.81	53179.60
591.01	54125.77
591.21	53923.02
591.41	53652.69
591.61	53675.21
591.81	54080.71
592.01	53861.58
592.21	54179.01
592.41	54029.51
592.61	54604.99
592.81	53851.34
593.02	54144.20
593.22	54635.71
593.42	54381.76
593.62	54623.42
593.82	54752.44
594.02	54523.07
594.22	54781.12
594.42	55100.60
594.62	54725.82
594.82	55383.22
595.02	55141.56
595.22	54969.53
595.42	55545.01
595.62	55342.26
595.82	54990.01
596.02	55876.78
596.22	55485.62
596.42	56169.64
596.62	55590.06
596.82	55637.17
597.02	55659.69
597.22	55985.32
597.42	55784.62
597.62	55893.16
597.82	55860.40
598.02	55389.36
598.22	56480.93
598.42	56339.62
598.62	56104.10
598.82	56306.85
599.02	56415.40
599.22	56994.97
599.42	56820.89
599.62	56528.03
599.82	56689.82
600.02	56450.21
600.22	57179.29
600.42	56865.95
600.62	56165.54
600.82	57048.22
601.02	56886.43
601.22	56960.15
601.42	57027.74
601.62	57623.70
601.82	57001.11
602.02	57085.08
602.22	56951.96
602.42	57535.63
602.62	57142.42
602.82	57420.95
603.02	57615.50
603.22	57599.12
603.42	57277.59
603.62	57613.46
603.82	58053.77
604.02	58082.44
604.22	57242.77
604.42	57412.76
604.62	57666.70
604.82	57707.66
605.02	57646.22
605.22	57793.68
605.42	57226.39
605.62	57369.75
605.82	58133.64
606.02	57709.71
606.22	57492.63
606.42	57441.43
606.62	57466.00
606.82	57769.10
607.01	57525.39
607.21	57482.39
607.41	57597.07
607.61	58240.14
607.81	57304.21
608.01	58012.81
608.21	58233.99
608.41	57855.12
608.61	57420.95
608.81	58012.81
609.01	57867.40
609.21	57621.65
609.41	57621.65
609.61	57826.45
609.81	57918.60
610.01	57586.83
610.21	57597.07
610.40	58260.62
610.60	57296.02
610.80	57410.71
611.00	57722.00
611.20	57552.02
611.40	57511.06
611.60	58215.56
611.80	57267.35
612.00	58336.39
612.20	57953.42
612.40	57230.49
612.60	57386.13
612.79	57676.94
612.99	57640.08
613.19	57666.70
613.39	57947.28
613.59	57498.77
613.79	57590.93
613.99	57851.02
614.19	57425.04
614.39	56773.79
614.59	57353.36
614.79	57750.67
614.98	56974.49
615.18	57818.25
615.38	57672.85
615.58	57461.91
615.78	56954.01
615.98	57146.52
616.18	57334.93
616.38	57334.93
616.58	57334.93
616.77	57183.38
616.97	57019.55
617.17	57283.73
617.37	57250.97
617.57	57199.77
617.77	57248.92
617.97	57275.54
618.17	57664.66
618.36	57365.65
618.56	56933.53
618.76	57234.58
618.96	56964.25
619.16	56904.86
619.36	56951.96
619.56	56931.48
619.75	57220.25
619.95	56507.55
620.15	57033.88
620.35	56958.11
620.55	57115.80
620.75	57076.89
620.95	56851.61
621.14	56568.99
621.34	56902.81
621.54	57035.93
621.74	56747.17
621.94	56648.86
622.14	56562.85
622.34	56579.23
622.53	56425.64
622.73	56069.29
622.93	56464.55
623.13	56773.79
623.33	56140.97
623.53	57083.03
623.72	56730.78
623.92	56487.07
624.12	56284.33
624.32	56548.51
624.52	56372.39
624.72	56380.58
624.91	56302.76
625.11	56143.02
625.31	56050.86
625.51	56546.47
625.71	56095.91
625.91	56239.27
626.10	56482.98
626.30	56116.39
626.50	57054.36
626.70	55981.23
626.90	56708.25
627.09	55714.99
627.29	55807.15
627.49	56116.39
627.69	56255.65
627.89	56188.07
628.08	56458.40
628.28	56446.11
628.48	56517.79
628.68	56448.16
628.88	56081.58
629.07	56071.34
629.27	56419.49
629.47	56581.28
629.67	55856.30
629.87	56468.64
630.06	56421.54
630.26	55606.45
630.46	56063.14
630.66	56165.54
630.86	55829.68
631.05	55686.32
631.25	56042.66
631.45	56216.74
631.65	56329.38
631.84	56204.45
632.04	55956.65
632.24	56151.21
632.44	56390.82
632.64	56102.06
632.83	56501.41
633.03	56024.23
633.23	56454.31
633.43	56339.62
633.62	56216.74
633.82	56575.14
634.02	56214.69
634.22	56589.47
634.41	55717.04
634.61	56437.92
634.81	55946.41
635.01	56462.50
635.20	56704.16
635.40	56450.21
635.60	56005.80
635.80	56276.13
635.99	56333.48
636.19	56974.49
636.39	56171.69
636.59	56829.08
636.78	56292.52
636.98	56276.13
637.18	56745.12
637.38	56589.47
637.57	56437.92
637.77	56534.18
637.97	56726.69
638.17	56861.85
638.36	57050.27
638.56	56700.06
638.76	56628.38
638.96	57222.29
639.15	56874.14
639.35	57834.64
639.55	57060.51
639.74	57185.43
639.94	57123.99
640.14	57332.89
640.34	57058.46
640.53	57640.08
640.73	56904.86
640.93	56902.81
641.12	56939.68
641.32	57388.18
641.52	57273.49
641.72	57140.38
641.91	57048.22
642.11	57681.04
642.31	57484.43
642.50	57791.63
642.70	57857.17
642.90	57709.71
643.09	57898.12
643.29	57324.69
643.49	57871.50
643.69	57605.26
643.88	58051.72
644.08	57656.46
644.28	58102.92
644.47	58121.35
644.67	57635.98
644.87	58037.39
645.06	58057.87
645.26	57848.97
645.46	58004.62
645.65	57926.80
645.85	57844.88
646.05	58543.23
646.24	58236.04
646.44	58371.21
646.64	58813.57
646.83	58737.79
647.03	58449.03
647.23	58778.75
647.42	58666.11
647.62	58827.90
647.82	58104.97
648.01	58862.72
648.21	58715.26
648.41	58481.80
648.60	59233.40
648.80	59034.75
649.00	59028.60
649.19	58586.24
649.39	58518.66
649.59	59219.06
649.78	59096.19
649.98	58928.25
650.18	59387.00
650.37	58883.20
650.57	58836.09
650.76	59018.36
650.96	59495.54
651.16	59255.93
651.35	59835.50
651.55	59155.58
651.75	59335.80
651.94	58866.81
652.14	59776.11
652.34	59683.95
652.53	59954.29
652.73	59178.10
652.92	59763.82
653.12	59853.93
653.32	59763.82
653.51	59780.21
653.71	59874.41
653.91	59737.20
654.10	60363.88
654.30	59298.94
654.49	59917.42
654.69	60720.23
654.89	60214.38
655.08	60146.79
655.28	60284.01
655.47	60572.77
655.67	60048.49
655.87	60036.20
656.06	59995.24
656.26	60410.98
656.45	60025.96
656.65	60519.52
656.85	60675.17
657.04	60238.95
657.24	60458.09
657.43	60732.51
657.63	59843.69
657.83	60083.31
658.02	60982.37
658.22	60312.68
658.41	60945.50
658.61	60845.15
658.81	60990.56
659.00	60982.37
659.20	60834.91
659.39	60339.30
659.59	60386.41
659.78	60099.69
659.98	60208.23
660.18	60736.61
660.37	60982.37
660.57	60607.59
660.76	60118.12
660.96	60955.74
661.15	61168.73
661.35	60685.41
661.54	60693.60
661.74	60761.18
661.94	60507.24
662.13	61064.28
662.33	60738.66
662.52	60699.75
662.72	60943.45
662.91	61299.80
663.11	60787.81
663.30	61068.38
663.50	61039.71
663.70	60415.08
663.89	60714.08
664.09	60908.64
664.28	60576.87
664.48	60734.56
664.67	60752.99
664.87	60611.68
665.06	60992.61
665.26	60935.26
665.45	60654.69
665.65	60937.31
665.84	60822.62
666.04	60972.13
666.24	60798.05
666.43	60925.02
666.63	60998.75
666.82	60894.30
667.02	60968.03
667.21	60804.19
667.41	61011.04
667.60	60589.16
667.80	60652.64
667.99	60922.97
668.19	60789.86
668.38	60867.68
668.58	60767.33
668.77	60611.68
668.97	60329.06
669.16	60374.12
669.36	60576.87
669.55	60609.64
669.75	60441.70
669.94	60468.33
670.14	60591.20
670.33	60304.49
670.53	60116.07
670.72	60812.38
670.92	60752.99
671.11	60451.94
671.31	60427.37
671.50	60372.07
671.70	59753.58
671.89	60218.47
672.09	60396.65
672.28	59661.43
672.48	60329.06
672.67	60255.34
672.87	59614.32
673.06	59925.61
673.26	60241.00
673.45	59989.10
673.64	59708.53
673.84	59649.14
674.03	59726.96
674.23	60128.36
674.42	59837.55
674.62	59038.84
674.81	59837.55
675.01	59356.28
675.20	59620.47
675.40	59708.53
675.59	59370.61
675.79	59501.68
675.98	59497.59
676.17	59042.94
676.37	59098.23
676.56	59090.04
676.76	59520.12
676.95	58573.95
677.15	58950.78
677.34	59247.74
677.54	59102.33
677.73	59628.66
677.92	59317.37
678.12	59337.85
678.31	58606.72
678.51	59153.53
678.70	58918.01
678.90	59071.61
679.09	58637.44
679.28	58852.48
679.48	58561.67
679.67	58680.45
679.87	58600.58
680.06	58788.99
680.26	58086.54
680.45	58504.32
680.64	58631.30
680.84	58332.29
681.03	58397.83
681.23	58023.05
681.42	58504.32
681.61	57969.80
681.81	58147.98
682.00	58244.23
682.20	57842.83
682.39	57670.80
682.59	57930.89
682.78	57853.07
682.97	57865.36
683.17	57844.88
683.36	57969.80
683.56	57635.98
683.75	57568.40
683.94	57515.15
684.14	57314.45
684.33	57668.75
684.52	57785.49
684.72	57226.39
684.91	57588.88
685.11	57001.11
685.30	57023.64
685.49	57111.70
685.69	56808.61
685.88	56980.63
686.08	56802.46
686.27	56599.71
686.46	56698.01
686.66	56970.39
686.85	57115.80
687.04	56968.35
687.24	56798.37
687.43	56478.88
687.62	56362.15
687.82	56528.03
688.01	56695.97
688.21	56210.60
688.40	55975.08
688.59	56032.42
688.79	55856.30
688.98	56403.11
689.17	56429.73
689.37	56085.67
689.56	55905.45
689.75	56421.54
689.95	55942.31
690.14	55903.40
690.33	55813.29
690.53	55631.02
690.72	55346.36
690.91	55569.58
691.11	55458.99
691.30	56394.92
691.49	55895.21
691.69	55450.80
691.88	55735.47
692.07	55678.13
692.27	55237.81
692.46	55264.44
692.65	55565.49
692.85	55200.95
693.04	54992.06
693.23	55088.31
693.43	55428.27
693.62	54523.07
693.81	55448.75
694.01	55121.08
694.20	55035.06
694.39	55004.34
694.59	54596.80
694.78	54543.55
694.97	54820.03
695.17	54992.06
695.36	54752.44
695.55	54815.93
695.74	54217.92
695.94	54705.34
696.13	54783.16
696.32	54580.42
696.52	54402.24
696.71	54521.02
696.90	54230.21
697.10	54291.65
697.29	54490.30
697.48	54109.38
697.67	54420.67
697.87	54162.63
698.06	53818.57
698.25	54242.50
698.45	54125.77
698.64	53472.46
698.83	54252.74
699.02	53972.17
699.22	53724.36
699.41	53402.83
699.60	54205.64
699.79	54011.08
699.99	54209.73
700.18	53804.24
700.37	54254.79
700.57	53777.61
700.76	53617.87
700.95	53734.60
701.14	53535.95
701.34	53791.95
701.53	53621.97
701.72	53953.74
701.91	53460.18
702.11	53834.95
702.30	53021.91
702.49	53419.22
702.68	52878.55
702.88	53083.35
703.07	53365.97
703.26	53269.72
703.45	53423.31
703.65	53296.34
703.84	53298.39
704.03	53402.83
704.22	53107.93
704.42	53161.17
704.61	53398.74
704.80	53091.54
704.99	53056.73
705.18	53224.66
705.38	53011.67
705.57	53175.51
705.76	53079.25
705.95	52929.75
706.15	52419.81
706.34	52763.87
706.53	53142.74
706.72	52894.94
706.91	52546.78
707.11	53189.84
707.30	52933.85
707.49	52937.94
707.68	52681.95
707.88	52620.51
708.07	52669.66
708.26	53259.48
708.45	52661.47
708.64	52913.37
708.84	52718.81
709.03	52534.49
709.22	52681.95
709.41	52542.69
709.60	52716.76
709.80	52253.92
709.99	52597.98
710.18	52430.05
710.37	52636.89
710.56	52466.91
710.75	52622.56
710.95	52417.76
711.14	52847.83
711.33	52507.87
711.52	52434.14
711.71	52833.50
711.91	52047.08
712.10	52417.76
712.29	52323.55
712.48	52692.19
712.67	52362.46
712.86	52450.53
713.06	52825.31
713.25	52925.66
713.44	52534.49
713.63	52473.06
713.82	52294.88
714.01	52643.04
714.21	52585.69
714.40	52522.21
714.59	52331.75
714.78	52423.90
714.97	52516.06
715.16	52485.34
715.35	52477.15
715.55	52542.69
715.74	52374.75
715.93	51854.57
716.12	52217.06
716.31	52657.37
716.50	51860.71
716.69	52378.85
716.89	52358.37
717.08	52329.70
717.27	52352.23
717.46	52067.56
717.65	52352.23
717.84	52462.82
718.03	52436.19
718.23	52587.74
718.42	52032.74
718.61	51774.70
718.80	52569.31
718.99	51852.52
719.18	52174.05
719.37	52468.96
719.56	52077.80
719.75	52479.20
719.95	52462.82
720.14	52108.52
720.33	51868.90
720.52	51932.39
720.71	52579.55
720.90	52569.31
721.09	51832.04
721.28	52178.15
721.47	52581.60
721.67	52143.33
721.86	52002.02
722.05	52237.54
722.24	52581.60
722.43	51541.23
722.62	52147.43
722.81	52317.41
723.00	51885.29
723.19	52184.29
723.38	52292.83
723.57	52075.75
723.76	52208.87
723.96	52090.09
724.15	52167.91
724.34	52704.48
724.53	52305.12
724.72	52217.06
724.91	52468.96
725.10	51913.96
725.29	52337.89
725.48	52081.89
725.67	52268.26
725.86	52286.69
726.05	52440.29
726.24	52186.34
726.43	52077.80
726.63	52565.21
726.82	52051.17
727.01	52186.34
727.20	51731.69
727.39	51959.02
727.58	52483.30
727.77	52393.18
727.96	51967.21
728.15	52550.88
728.34	52569.31
728.53	52393.18
728.72	52362.46
728.91	51956.97
729.10	52102.37
729.29	51795.18
729.48	52264.16
729.67	51909.86
729.86	51793.13
730.05	51692.78
730.24	51604.72
730.43	52202.72
730.62	52030.69
730.81	52057.32
731.00	51301.62
731.19	52597.98
731.39	51715.31
731.58	52047.08
731.77	51567.85
731.96	51786.99
732.15	52094.18
732.34	51674.35
732.53	51150.07
732.72	51563.76
732.91	51485.93
733.10	51520.75
733.29	51473.65
733.48	51692.78
733.67	51330.29
733.86	51285.23
734.05	51592.43
734.24	50941.17
734.43	50951.41
734.62	51174.64
734.81	51512.56
735.00	51737.83
735.19	51410.16
735.38	51029.24
735.57	51041.53
735.76	50732.28
735.95	51252.47
736.14	51197.17
736.33	51463.41
736.51	50910.46
736.70	51129.59
736.89	51217.65
737.08	51102.96
737.27	51424.50
737.46	51170.55
737.65	51006.71
737.84	51055.86
738.03	50889.98
738.22	51758.31
738.41	50619.64
738.60	50803.96
738.79	50887.93
738.98	50697.47
739.17	50654.46
739.36	50603.26
739.55	50631.93
739.74	51002.61
739.93	50773.24
740.12	51037.43
740.31	50416.89
740.50	50396.42
740.69	50787.58
740.88	50461.95
741.07	49974.53
741.25	50713.85
741.44	50134.28
741.63	50834.68
741.82	50394.37
742.01	49937.67
742.20	49804.55
742.39	50486.53
742.58	50195.71
742.77	50498.81
742.96	50177.28
743.15	49779.98
743.34	50156.80
743.53	50320.64
743.72	49718.54
743.90	49661.19
744.09	49841.42
744.28	49876.23
744.47	49698.06
744.66	49620.23
744.85	49526.03
745.04	49784.07
745.23	49833.22
745.42	49833.22
745.61	49071.38
745.80	49358.09
745.98	49001.75
746.17	49517.84
746.36	49716.49
746.55	48792.86
746.74	48958.74
746.93	49089.81
747.12	49032.47
747.31	48774.42
747.50	48612.63
747.69	48635.16
747.87	48643.35
748.06	48532.76
748.25	48753.94
748.44	48469.28
748.63	48180.51
748.82	48661.79
749.01	48596.25
749.20	48174.37
749.38	48045.35
749.57	47893.80
749.76	48112.93
749.95	48022.82
750.14	48385.31
750.33	48096.55
750.52	48370.97
750.70	47885.61
750.89	47680.81
751.08	47879.46
751.27	47734.06
751.46	47721.77
751.65	47666.47
751.84	47512.88
752.02	47668.52
752.21	47734.06
752.40	47101.23
752.59	47557.93
752.78	47291.69
752.97	47097.14
753.16	47535.40
753.34	47078.71
753.53	46798.13
753.72	46812.47
753.91	46644.54
754.10	46869.81
754.29	46835.00
754.47	46966.07
754.66	46320.96
754.85	46605.62
755.04	46292.29
755.23	46515.51
755.42	46636.34
755.60	46253.37
755.79	46345.53
755.98	45903.17
756.17	46284.09
756.36	45784.39
756.54	45991.23
756.73	45557.06
756.92	46058.82
757.11	45964.61
757.30	45518.15
757.48	45253.97
757.67	45608.26
757.86	45460.81
758.05	44991.83
758.24	45469.00
758.43	45425.99
758.61	45081.94
758.80	45213.01
758.99	45116.75
759.18	45133.14
759.36	44969.30
759.55	44975.44
759.74	44877.14
759.93	45356.36
760.12	44793.17
760.30	44418.39
760.49	44522.84
760.68	44498.26
760.87	44625.24
761.06	44021.09
761.24	44492.12
761.43	43543.91
761.62	43873.63
761.81	44139.87
761.99	43851.11
762.18	43906.40
762.37	44176.73
762.56	43515.24
762.74	44086.62
762.93	43652.45
763.12	43744.61
763.31	43689.32
763.49	43761.00
763.68	43191.66
763.87	42933.62
764.06	43464.04
764.24	43500.90
764.43	43521.38
764.62	43294.06
764.81	43375.98
764.99	43160.94
765.18	42906.99
765.37	42610.04
765.56	42376.57
765.74	43259.24
765.93	42278.27
766.12	42888.56
766.31	42640.76
766.49	42575.22
766.68	42245.50
766.87	42632.57
767.06	42118.53
767.24	42018.17
767.43	41926.02
767.62	42351.99
767.80	41856.39
767.99	41758.08
768.18	41782.66
768.37	41821.57
768.55	41874.82
768.74	41659.78
768.93	41737.60
769.11	41094.54
769.30	41309.58
769.49	41305.48
769.68	41133.45
769.86	41035.15
770.05	41325.96
770.24	40975.76
770.42	41231.75
770.61	40902.03
770.80	40869.26
770.98	40930.70
771.17	40783.25
771.36	40664.47
771.54	40895.89
771.73	40746.39
771.92	40861.07
772.10	39964.06
772.29	40754.58
772.48	40365.46
772.67	40496.53
772.85	40363.42
773.04	40123.80
773.23	40074.65
773.41	39773.60
773.60	39740.83
773.79	39820.70
773.97	39869.86
774.16	39527.84
774.35	39429.54
774.53	39269.80
774.72	39947.68
774.91	39337.38
775.09	39071.15
775.28	39208.36
775.47	39218.60
775.65	39058.86
775.84	39435.69
776.02	38671.79
776.21	38634.93
776.40	38849.97
776.58	39200.17
776.77	38942.13
776.96	39005.61
777.14	39071.15
777.33	39046.57
777.52	38503.86
777.70	38800.82
777.89	38534.58
778.07	38264.25
778.26	38481.33
778.45	38528.44
778.63	38911.41
778.82	38307.26
779.01	38153.66
779.19	38081.98
779.38	38157.75
779.56	38020.54
779.75	37893.57
779.94	37916.09
780.12	38010.30
780.31	37682.62
780.50	37764.54
780.68	37684.67
780.87	37598.66
781.05	37541.32
781.24	37264.84
781.43	37047.75
781.61	37471.68
781.80	37653.95
781.98	37133.77
782.17	37547.46
782.36	37197.26
782.54	37080.52
782.73	37199.30
782.91	37066.19
783.10	36928.97
783.29	36621.78
783.47	36980.17
783.66	36679.12
783.84	36492.76
784.03	36877.77
784.21	36171.22
784.40	36242.90
784.59	36353.49
784.77	36695.50
784.96	36599.25
785.14	36367.83
785.33	36429.27
785.51	36036.06
785.70	36171.22
785.89	35835.36
786.07	36392.40
786.26	36066.78
786.44	36050.39
786.63	35640.80
786.81	35806.69
787.00	35800.54
787.18	35288.55
787.37	35341.80
787.56	35634.66
787.74	35444.20
787.93	35388.90
788.11	35618.27
788.30	35065.32
788.48	35792.35
788.67	35112.42
788.85	35155.43
789.04	34979.31
789.22	35151.34
789.41	34809.32
789.60	35448.29
789.78	35206.63
789.97	34366.96
790.15	34821.61
790.34	34723.31
790.52	34768.37
790.71	34856.43
790.89	34495.99
791.08	34305.52
791.26	34285.04
791.45	34731.50
791.63	34711.02
791.82	34199.03
792.00	34229.75
792.19	34342.39
792.37	34426.35
792.56	34430.45
792.74	34176.50
792.93	34434.55
793.11	34340.34
793.30	33957.37
793.48	33762.81
793.67	33746.43
793.85	33805.82
794.04	33676.80
794.22	33938.94
794.41	33506.82
794.59	33404.42
794.78	33863.16
794.96	33537.54
795.15	33367.55
795.33	33615.36
795.52	33289.73
795.70	33373.70
795.89	33107.46
796.07	33074.70
796.26	33060.36
796.44	33027.59
796.63	33031.69
796.81	32914.95
796.99	32849.42
797.18	32945.67
797.36	32620.05
797.55	32833.04
797.73	32550.42
797.92	32564.75
798.10	32515.60
798.29	32415.25
798.47	32038.42
798.66	32472.59
798.84	32411.15
799.02	32439.82
799.21	32183.83
799.39	32183.83
799.58	32101.91
799.76	32112.15
799.95	32263.70
800.13	31813.15
800.32	31825.43
800.50	32060.95
800.68	32015.90
800.87	32122.39
801.05	32251.41
801.24	31940.12
801.42	31792.67
801.61	32335.38
801.79	32380.43
801.97	32024.09
802.16	31911.45
802.34	32040.47
802.53	32171.54
802.71	31655.45
802.90	31962.65
803.08	31604.25
803.26	31772.19
803.45	31745.56
803.63	31761.95
803.82	31458.85
804.00	31764.00
804.18	31647.26
804.37	32011.80
804.55	31778.33
804.74	31761.95
804.92	31940.12
805.10	31983.13
805.29	32071.19
805.47	31950.36
805.66	31557.15
805.84	31905.31
806.02	31858.20
806.21	32120.34
806.39	32103.96
806.57	31684.12
806.76	31831.58
806.94	31944.22
807.13	31845.91
807.31	31958.55
807.49	32028.18
807.68	32343.57
807.86	31864.35
808.04	32269.84
808.23	32192.02
808.41	32005.66
808.60	31850.01
808.78	32445.97
808.96	32658.96
809.15	32110.10
809.33	32175.64
809.51	32130.58
809.70	32132.63
809.88	32595.47
810.06	32228.88
810.25	32165.40
810.43	32290.32
810.61	32562.70
810.80	32247.32
810.98	32566.80
811.17	32429.59
811.35	32513.55
811.53	32441.87
811.72	32773.64
811.90	32439.82
812.08	32624.14
812.27	32579.09
812.45	32312.85
812.63	32599.57
812.82	32421.39
813.00	32701.96
813.18	32734.73
813.36	32519.70
813.55	32675.34
813.73	32525.84
813.91	32787.98
814.10	32499.22
814.28	32589.33
814.46	32380.43
814.65	32618.00
814.83	32333.33
815.01	32515.60
815.20	32304.66
815.38	32407.06
815.56	32581.13
815.75	32505.36
815.93	32570.90
816.11	32177.68
816.29	32269.84
816.48	32392.72
816.66	32370.19
816.84	32120.34
817.03	32015.90
817.21	32200.21
817.39	32452.11
817.57	32294.42
817.76	32079.38
817.94	32486.93
818.12	32183.83
818.31	32286.23
818.49	32192.02
818.67	31966.74
818.85	32349.71
819.04	32351.76
819.22	32321.04
819.40	32423.44
819.58	32011.80
819.77	32564.75
819.95	31897.11
820.13	32421.39
820.31	32220.69
820.50	32063.00
820.68	31800.86
820.86	32427.54
821.04	32034.33
821.23	32149.01
821.41	32222.74
821.59	32038.42
821.77	32042.52
821.96	32439.82
822.14	32269.84
822.32	32243.22
822.50	32220.69
822.69	32079.38
822.87	32017.94
823.05	32247.32
823.23	32280.08
823.42	32253.46
823.60	32024.09
823.78	31938.07
823.96	32083.48
824.15	31774.24
824.33	31919.64
824.51	32169.49
824.69	31950.36
824.87	31467.04
825.06	32112.15
825.24	31491.62
825.42	31706.65
825.60	31620.64
825.78	31643.17
825.97	31381.03
826.15	31651.36
826.33	31501.86
826.51	31565.34
826.69	31546.91
826.88	31522.34
827.06	31397.41
827.24	31120.93
827.42	31254.05
827.60	31209.00
827.79	31671.84
827.97	31223.33
828.15	31139.36
828.33	31182.37
828.51	31528.48
828.70	31041.06
828.88	31079.97
829.06	31096.36
829.24	30803.50
829.42	30858.79
829.60	30981.67
829.79	31096.36
829.97	31034.92
830.15	31051.30
830.33	31153.70
830.51	30871.08
830.69	30871.08
830.88	31239.72
831.06	30443.06
831.24	30936.62
831.42	30930.47
831.60	30348.85
831.78	30666.28
831.97	30862.89
832.15	30600.75
832.33	30436.91
832.51	30410.29
832.69	30631.47
832.87	30363.18
833.05	30223.92
833.24	30268.98
833.42	30400.05
833.60	30547.50
833.78	30101.04
833.96	30301.75
834.14	30142.00
834.32	30305.84
834.51	30037.56
834.69	30152.24
834.87	29799.99
835.05	29728.31
835.23	30023.22
835.41	30092.85
835.59	29916.73
835.77	29642.30
835.95	29781.56
836.14	30160.44
836.32	29658.68
836.50	29619.77
836.68	29337.15
836.86	29423.17
837.04	29574.72
837.22	29478.46
837.40	29488.70
837.58	29544.00
837.77	29761.08
837.95	29343.30
838.13	29566.52
838.31	29353.54
838.49	29095.49
838.67	29093.44
838.85	28941.89
839.03	29369.92
839.21	29060.68
839.39	29003.33
839.57	28997.19
839.76	29259.33
839.94	29277.76
840.12	28976.71
840.30	29378.11
840.48	28722.76
840.66	29048.39
840.84	28882.50
841.02	28624.46
841.20	28751.43
841.38	28745.29
841.56	28739.15
841.74	28550.73
841.92	28655.18
842.10	28337.74
842.28	28655.18
842.47	28366.42
842.65	28522.06
842.83	28569.16
843.01	28466.77
843.19	28571.21
843.37	28223.06
843.55	28214.87
843.73	28337.74
843.91	28331.60
844.09	28057.17
844.27	28034.64
844.45	27938.39
844.63	27557.47
844.81	27752.02
844.99	27924.05
845.17	28096.08
845.35	28329.55
845.53	28206.67
845.71	27989.59
845.89	27893.33
846.07	27467.36
846.25	27285.09
846.43	27352.67
846.61	27694.68
846.79	27604.57
846.97	27700.83
847.15	27549.28
847.33	27354.72
847.51	27252.32
847.69	27129.44
847.87	27188.83
848.05	27297.38
848.23	27057.76
848.41	26725.99
848.59	26703.46
848.77	27299.42
848.95	26809.96
849.13	26803.82
849.31	27033.19
849.49	26820.20
849.67	26943.08
849.85	26816.10
850.03	26525.29
850.21	26566.25
850.39	26687.08
850.57	26521.20
850.75	26390.13
850.93	26627.69
851.11	26142.32
851.29	26582.63
851.47	26441.32
851.65	26287.73
851.83	26367.60
852.01	26072.69
852.19	26312.30
852.37	26242.67
852.55	26060.40
852.73	25966.20
852.91	26158.70
853.09	25910.90
853.27	25796.21
853.45	25933.43
853.63	26156.66
853.81	25994.87
853.98	25816.69
854.16	25536.12
854.34	25503.35
854.52	25757.30
854.70	25448.06
854.88	25355.90
855.06	25355.90
855.24	25190.02
855.42	25495.16
855.60	25384.57
855.78	25255.55
855.96	25452.16
856.14	25370.24
856.32	25226.88
856.50	25132.67
856.67	24919.68
856.85	25183.87
857.03	25015.94
857.21	25218.69
857.39	24827.53
857.57	24741.51
857.75	25005.70
857.93	24725.13
858.11	24784.52
858.29	24669.83
858.47	24655.50
858.64	24780.42
858.82	24465.03
859.00	24669.83
859.18	24917.64
859.36	24465.03
859.54	24669.83
859.72	24026.77
859.90	24172.18
860.08	24477.32
860.26	23885.46
860.43	24409.74
860.61	24266.38
860.79	24016.53
860.97	23983.76
861.15	24235.66
861.33	23864.98
861.51	23877.27
861.69	23758.49
861.86	23674.52
862.04	23754.39
862.22	23568.02
862.40	23766.68
862.58	23807.64
862.76	23572.12
862.94	23547.54
863.11	23639.70
863.29	23094.94
863.47	23533.21
863.65	23277.21
863.83	23287.45
864.01	23412.38
864.19	22898.34
864.36	23094.94
864.54	23256.73
864.72	22947.49
864.90	23068.32
865.08	23002.78
865.26	22845.09
865.43	22933.15
865.61	22980.26
865.79	22646.44
865.97	22931.11
866.15	22851.24
866.33	22388.39
866.50	22810.28
866.68	22591.14
866.86	22390.44
867.04	22197.93
867.22	22679.21
867.40	22357.67
867.57	22369.96
867.75	21761.72
867.93	22312.62
868.11	22214.32
868.29	22365.87
868.46	22249.13
868.64	21804.72
868.82	22093.49
869.00	21798.58
869.18	21911.22
869.35	21962.42
869.53	21790.39
869.71	21690.04
869.89	21542.58
870.07	21757.62
870.24	21360.31
870.42	21487.29
870.60	21337.79
870.78	21354.17
870.96	21270.20
871.13	21350.07
871.31	21239.48
871.49	21235.39
871.67	21010.11
871.84	21122.75
872.02	21231.29
872.20	21012.16
872.38	21018.30
872.56	21132.99
872.73	21077.69
872.91	20750.02
873.09	20973.25
873.27	20653.76
873.44	20833.99
873.62	20844.23
873.80	20672.20
873.98	20604.61
874.15	20528.84
874.33	20403.91
874.51	20418.25
874.69	20477.64
874.86	20459.21
875.04	20358.86
875.22	20113.10
875.40	20156.11
875.57	20403.91
875.75	20020.94
875.93	20336.33
876.11	20391.62
876.28	20178.64
876.46	20104.91
876.64	20182.73
876.81	20240.08
876.99	20182.73
877.17	19975.89
877.35	20133.58
877.52	19801.81
877.70	19789.52
877.88	20076.24
878.05	19926.74
878.23	19762.90
878.41	19877.58
878.59	19566.29
878.76	19836.63
878.94	19898.06
879.12	19723.99
879.29	19756.75
879.47	19476.18
879.65	19662.55
879.83	19533.53
880.00	19578.58
880.18	19523.29
880.36	19697.36
880.53	19756.75
880.71	19556.05
880.89	19373.78
881.06	19488.47
881.24	19361.50
881.42	19207.90
881.59	19261.15
881.77	19646.16
881.95	19642.07
882.12	19158.75
882.30	19271.39
882.48	19257.05
882.65	19769.04
882.83	19195.61
883.01	19396.31
883.18	18970.33
883.36	19420.89
883.54	19175.13
883.71	19257.05
883.89	19330.78
884.07	19345.11
884.24	19240.67
884.42	19191.52
884.60	19467.99
884.77	18947.81
884.95	19226.33
885.13	19003.10
885.30	19181.28
885.48	19072.73
885.66	19191.52
885.83	18894.56
886.01	18999.01
886.18	19197.66
886.36	19265.24
886.54	19031.77
886.71	19001.05
886.89	19179.23
887.07	19074.78
887.24	19119.84
887.42	19091.16
887.59	19035.87
887.77	18915.04
887.95	19416.79
888.12	19052.25
888.30	19060.45
888.48	18994.91
888.65	19125.98
888.83	18849.50
889.00	18933.47
889.18	19101.40
889.36	18904.80
889.53	18753.25
889.71	18927.33
889.88	18894.56
890.06	19097.31
890.24	19103.45
890.41	18994.91
890.59	18794.21
890.76	18603.75
890.94	18972.38
891.12	18757.35
891.29	18579.17
891.47	18790.11
891.64	18837.22
891.82	18605.80
891.99	18886.37
892.17	18560.74
892.35	18570.98
892.52	18644.71
892.70	18562.79
892.87	18589.41
893.05	18798.31
893.22	18675.43
893.40	18867.94
893.58	18763.49
893.75	18781.92
893.93	18540.26
894.10	18466.53
894.28	18841.31
894.45	18306.79
894.63	18405.10
894.80	18298.60
894.98	18470.63
895.15	18249.45
895.33	18484.97
895.51	18372.33
895.68	18564.84
895.86	18300.65
896.03	18527.97
896.21	18192.11
896.38	18341.61
896.56	18114.28
896.73	18063.08
896.91	18024.17
897.08	18046.70
897.26	18073.32
897.43	18108.14
897.61	18306.79
897.78	18126.57
897.96	18218.73
898.13	17948.40
898.31	18058.99
898.48	17981.17
898.66	17989.36
898.83	17999.60
899.01	17929.97
899.19	18249.45
899.36	17766.13
899.54	18020.08
899.71	17774.32
899.89	17815.28
900.06	17983.21
900.23	17657.59
900.41	18048.75
900.58	17563.38
900.76	17782.51
900.93	17735.41
901.11	18001.65
901.28	17659.63
901.46	17518.32
901.63	17438.45
901.81	17594.10
901.98	17792.75
902.16	17864.43
902.33	17446.65
902.51	17551.09
902.68	17401.59
902.86	17551.09
903.03	17405.69
903.21	17510.13
903.38	17186.55
903.56	17518.32
903.73	17473.27
903.90	17604.34
904.08	17313.53
904.25	17194.75
904.43	17274.62
904.60	17266.42
904.78	17377.01
904.95	17366.78
905.13	17387.25
905.30	17020.67
905.47	17127.16
905.65	17325.82
905.82	17020.67
906.00	17086.20
906.17	16916.22
906.35	16922.37
906.52	17202.94
906.70	16813.82
906.87	17155.83
907.04	17108.73
907.22	16611.07
907.39	16893.69
907.57	16713.47
907.74	16842.50
907.91	16752.38
908.09	16699.14
908.26	16869.12
908.44	16676.61
908.61	16297.74
908.78	16684.80
908.96	16420.61
909.13	16574.21
909.31	16326.41
909.48	16144.14
909.66	16262.92
909.83	16668.42
910.00	16398.09
910.18	16672.51
910.35	16256.78
910.52	16273.16
910.70	16082.70
910.87	16125.71
911.05	16240.39
911.22	16264.97
911.39	16228.10
911.57	16262.92
911.74	16250.63
911.92	16021.26
912.09	16312.07
912.26	15990.54
912.44	15978.25
912.61	15933.20
912.78	16023.31
912.96	15730.45
913.13	15929.10
913.30	16025.36
913.48	15476.50
913.65	15783.70
913.83	15894.29
914.00	15544.08
914.17	15703.82
914.35	15707.92
914.52	15445.78
914.69	15601.43
914.87	15595.28
915.04	15417.11
915.21	15513.36
915.39	15437.59
915.56	15527.70
915.73	15433.49
915.91	15400.72
916.08	15197.98
916.25	15091.48
916.43	15410.96
916.60	15257.37
916.77	15353.62
916.95	15148.82
917.12	14989.08
917.29	14997.28
917.47	14968.60
917.64	15015.71
917.81	15234.84
917.98	14944.03
918.16	14956.32
918.33	14962.46
918.50	14862.11
918.68	14931.74
918.85	14989.08
919.02	14802.72
919.20	14542.63
919.37	14610.21
919.54	14763.81
919.72	14688.03
919.89	14602.02
920.06	14675.74
920.23	14569.25
920.41	14567.20
920.58	14335.78
920.75	14516.00
920.93	14343.97
921.10	14499.62
921.27	14343.97
921.44	14274.34
921.62	14276.39
921.79	14454.56
921.96	14108.46
922.13	14335.78
922.31	14257.96
922.48	14167.85
922.65	14288.68
922.82	14362.40
923.00	14137.13
923.17	14069.55
923.34	14006.06
923.52	13866.80
923.69	13940.52
923.86	13799.21
924.03	13930.28
924.21	13793.07
924.38	13793.07
924.55	13834.03
924.72	13805.36
924.89	13596.46
925.07	13909.80
925.24	13657.90
925.41	13788.97
925.58	13862.70
925.76	13625.14
925.93	13813.55
926.10	13670.19
926.27	13817.65
926.45	13508.40
926.62	13723.44
926.79	13455.15
926.96	13387.57
927.13	13352.76
927.31	13438.77
927.48	13289.27
927.65	13242.17
927.82	13324.08
927.99	13260.60
928.17	13360.95
928.34	13031.23
928.51	13188.92
928.68	12973.88
928.86	13057.85
929.03	12951.35
929.20	13053.75
929.37	13113.14
929.54	12828.48
929.71	12967.74
929.89	12771.13
930.06	12771.13
930.23	12689.21
930.40	12764.99
930.57	12750.65
930.75	12828.48
930.92	12670.78
931.09	12625.73
931.26	12537.66
931.43	12506.95
931.60	12590.91
931.78	12513.09
931.95	12580.67
932.12	12644.16
932.29	12576.58
932.46	12588.86
932.63	12390.21
932.81	12433.22
932.98	12365.64
933.15	12574.53
933.32	12339.01
933.49	12306.24
933.66	12257.09
933.83	12353.35
934.01	12195.65
934.18	11964.23
934.35	12109.64
934.52	12105.54
934.69	12203.85
934.86	12220.23
935.03	12013.38
935.21	12001.10
935.38	12209.99
935.55	11921.23
935.72	11931.47
935.89	11794.25
936.06	11857.74
936.23	11865.93
936.40	11775.82
936.58	11663.18
936.75	11532.11
936.92	11767.63
937.09	11714.38
937.26	11507.54
937.43	11538.26
937.60	11573.07
937.77	11587.41
937.94	11482.96
938.12	11485.01
938.29	11431.76
938.46	11685.71
938.63	11423.57
938.80	11472.72
938.97	11482.96
939.14	11329.36
939.31	11487.06
939.48	11331.41
939.65	11243.35
939.82	11216.72
940.00	11237.20
940.17	11341.65
940.34	11245.40
940.51	11308.88
940.68	11366.23
940.85	11263.83
941.02	11163.48
941.19	11093.85
941.36	11114.33
941.53	10927.96
941.70	10930.01
941.87	10753.88
942.04	11075.42
942.21	10940.25
942.38	10696.54
942.55	10678.11
942.73	10778.46
942.90	10784.60
943.07	10731.36
943.24	10839.90
943.41	10784.60
943.58	10719.07
943.75	10674.01
943.92	10755.93
944.09	10612.57
944.26	10676.06
944.43	10553.18
944.60	10481.50
944.77	10442.59
944.94	10442.59
945.11	10362.72
945.28	10286.95
945.45	10221.41
945.62	10360.67
945.79	10487.65
945.96	10366.82
946.13	10186.60
946.30	10594.14
946.47	10135.40
946.64	10379.11
946.81	10270.56
946.98	10254.18
947.15	10141.54
947.32	10094.44
947.49	10102.63
947.66	10153.83
947.83	9922.41
948.00	10086.25
948.17	9906.02
948.34	9764.72
948.51	9848.68
948.68	9977.70
948.85	9877.35
949.02	9910.12
949.19	9746.28
949.36	10139.49
949.53	9772.91
949.70	9895.78
949.87	9926.50
950.04	9742.19
950.21	9764.72
950.38	9617.26
950.55	9801.58
950.72	9566.06
950.89	9531.25
951.06	9480.05
951.23	9594.73
951.40	9459.57
951.57	9531.25
951.74	9568.11
951.91	9365.36
952.08	9459.57
952.24	9320.31
952.41	9439.09
952.58	9404.27
952.75	9564.01
952.92	9445.23
953.09	9295.73
953.26	9312.11
953.43	9217.91
953.60	9144.18
953.77	8968.06
953.94	9156.47
954.11	9301.87
954.28	9107.32
954.45	9207.67
954.62	9105.27
954.78	9125.75
954.95	8873.85
955.12	9052.02
955.29	9015.16
955.46	8980.34
955.63	8953.72
955.80	8761.21
955.97	8753.02
956.14	8931.19
956.31	8822.65
956.48	8771.45
956.64	8877.94
956.81	8681.34
956.98	8753.02
957.15	8814.46
957.32	8511.36
957.49	8695.68
957.66	8542.08
957.83	8664.96
958.00	8580.99
958.16	8624.00
958.33	8494.97
958.50	8599.42
958.67	8626.04
958.84	8345.47
959.01	8558.46
959.18	8306.56
959.35	8437.63
959.52	8341.38
959.68	8351.62
959.85	8415.10
960.02	8419.20
960.19	8284.03
960.36	8320.90
960.53	8126.34
960.70	8304.51
960.86	8148.87
961.03	8023.94
961.20	8243.07
961.37	8118.15
961.54	8228.74
961.71	8259.46
961.87	7976.84
962.04	7993.22
962.21	7974.79
962.38	8009.61
962.55	8064.90
962.72	7942.02
962.88	7901.06
963.05	7923.59
963.22	7964.55
963.39	7726.99
963.56	8030.09
963.73	7841.67
963.89	7729.03
964.06	7884.68
964.23	7665.55
964.40	7765.90
964.57	7565.20
964.74	7698.31
964.90	7739.27
965.07	7595.92
965.24	7683.98
965.41	7649.16
965.58	7649.16
965.74	7575.44
965.91	7546.76
966.08	7450.51
966.25	7554.96
966.42	7530.38
966.58	7421.84
966.75	7507.85
966.92	7483.28
967.09	7542.67
967.25	7430.03
967.42	7452.56
967.59	7432.08
967.76	7325.58
967.93	7380.88
968.09	7413.65
968.26	7448.46
968.43	7251.86
968.60	7292.82
968.76	7051.16
968.93	7079.83
969.10	7045.01
969.27	7174.03
969.43	7137.17
969.60	6932.37
969.77	7092.12
969.94	7028.63
970.10	6901.65
970.27	6903.70
970.44	6959.00
970.61	6897.56
970.77	6875.03
970.94	6995.86
971.11	6821.78
971.28	6778.78
971.44	7006.10
971.61	6784.92
971.78	6858.65
971.95	6817.69
972.11	6713.24
972.28	6649.75
972.45	6703.00
972.62	6647.71
972.78	6801.30
972.95	6825.88
973.12	6672.28
973.28	6588.32
973.45	6588.32
973.62	6528.92
973.79	6643.61
973.95	6543.26
974.12	6549.40
974.29	6459.29
974.45	6430.62
974.62	6494.11
974.79	6457.25
974.95	6459.29
975.12	6492.06
975.29	6412.19
975.46	6367.13
975.62	6453.15
975.79	6131.62
975.96	6313.89
976.12	6246.30
976.29	6252.45
976.46	6207.39
976.62	6289.31
976.79	6270.88
976.96	6289.31
977.12	6158.24
977.29	6311.84
977.46	6168.48
977.62	6135.71
977.79	5898.15
977.96	6191.01
978.12	6102.95
978.29	5924.77
978.46	5957.54
978.62	5920.68
978.79	6121.38
978.96	5795.75
979.12	5955.49
979.29	5803.94
979.46	5838.76
979.62	5889.96
979.79	5881.77
979.96	5728.17
980.12	5832.62
980.29	5844.90
980.45	5832.62
980.62	5808.04
980.79	5695.40
980.95	5853.09
981.12	5797.80
981.29	5808.04
981.45	5787.56
981.62	5552.04
981.78	5691.31
981.95	5674.92
982.12	5541.80
982.28	5543.85
982.45	5584.81
982.62	5674.92
982.78	5605.29
982.95	5396.40
983.11	5517.23
983.28	5517.23
983.45	5500.84
983.61	5449.64
983.78	5289.90
983.94	5478.32
984.11	5291.95
984.28	5531.56
984.44	5285.81
984.61	5296.05
984.77	5281.71
984.94	5365.68
985.10	5285.81
985.27	5351.34
985.44	5283.76
985.60	5175.22
985.77	5386.16
985.93	5398.45
986.10	5373.87
986.26	5111.73
986.43	5173.17
986.60	5312.43
986.76	5093.30
986.93	5236.66
987.09	5134.26
987.26	5091.25
987.42	5140.40
987.59	5025.72
987.76	4999.09
987.92	4951.99
988.09	4964.28
988.25	5015.48
988.42	4980.66
988.58	4937.65
988.75	5132.21
988.91	4966.32
989.08	4937.65
989.24	4868.02
989.41	4876.21
989.57	4974.52
989.74	4906.93
989.91	5046.20
990.07	4902.84
990.24	4945.84
990.40	4765.62
990.57	4681.66
990.73	4851.64
990.90	4755.38
991.06	4827.06
991.23	4679.61
991.39	4710.33
991.56	4743.10
991.72	4575.16
991.89	4652.98
992.05	4763.58
992.22	4634.55
992.38	4642.75
992.55	4614.07
992.71	4739.00
992.88	4566.97
993.04	4562.87
993.21	4392.89
993.37	4573.11
993.54	4534.20
993.70	4542.39
993.87	4388.80
994.03	4503.48
994.20	4368.32
994.36	4478.91
994.53	4403.13
994.69	4523.96
994.85	4415.42
995.02	4399.04
995.18	4446.14
995.35	4429.76
995.51	4380.61
995.68	4333.50
995.84	4409.28
996.01	4267.97
996.17	4251.58
996.34	4200.38
996.50	4265.92
996.67	4184.00
996.83	4237.25
996.99	4261.82
997.16	4241.34
997.32	4151.23
997.49	4212.67
997.65	4263.87
997.82	4140.99
997.98	4134.85
998.14	4167.62
998.31	4124.61
998.47	4118.47
998.64	4114.37
998.80	4057.03
998.97	3954.63
999.13	4122.56
999.29	3934.15
999.46	4046.79
999.62	3919.81
999.79	4040.64
999.95	4065.22
1000.12	3973.06
1000.28	4138.94
1000.44	4108.23
1000.61	4054.98
1000.77	3880.90
1000.94	3956.68
1001.10	3794.89
1001.26	3880.90
1001.43	3850.18
1001.59	3923.91
1001.75	3751.88
1001.92	3823.56
1002.08	3811.27
1002.25	3903.43
1002.41	3944.39
1002.57	3811.27
1002.74	3688.39
1002.90	3813.32
1003.07	3661.77
1003.23	3815.37
1003.39	3706.82
1003.56	3717.06
1003.72	3768.26
1003.88	3604.42
1004.05	3702.73
1004.21	3747.78
1004.37	3647.43
1004.54	3776.45
1004.70	3803.08
1004.87	3633.10
1005.03	3659.72
1005.19	3594.19
1005.36	3606.47
1005.52	3727.30
1005.68	3626.95
1005.85	3565.51
1006.01	3508.17
1006.17	3508.17
1006.34	3469.26
1006.50	3565.51
1006.66	3540.94
1006.83	3602.38
1006.99	3530.70
1007.15	3432.40
1007.32	3416.01
1007.48	3620.81
1007.64	3514.31
1007.81	3477.45
1007.97	3475.40
1008.13	3338.19
1008.30	3350.48
1008.46	3274.70
1008.62	3332.05
1008.78	3323.85
1008.95	3373.00
1009.11	3340.24
1009.27	3364.81
1009.44	3276.75
1009.60	3350.48
1009.76	3278.80
1009.93	3260.37
1010.09	3243.98
1010.25	3319.76
1010.41	3266.51
1010.58	3352.52
1010.74	3323.85
1010.90	3291.09
1011.07	3205.07
1011.23	3151.82
1011.39	3264.46
1011.55	3250.13
1011.72	3282.89
1011.88	3157.97
1012.04	3098.58
1012.20	3180.50
1012.37	3196.88
1012.53	3084.24
1012.69	3176.40
1012.86	3057.62
1013.02	3229.65
1013.18	3106.77
1013.34	3030.99
1013.51	3147.73
1013.67	3127.25
1013.83	3090.38
1013.99	3049.43
1014.16	3049.43
1014.32	3096.53
1014.48	3069.91
1014.64	3074.00
1014.80	2998.23
1014.97	2969.55
1015.13	2930.64
1015.29	2963.41
1015.45	3063.76
1015.62	3016.66
1015.78	2963.41
1015.94	2867.16
1016.10	2934.74
1016.27	3033.04
1016.43	2940.88
1016.59	2926.55
1016.75	2789.33
1016.91	2891.73
1017.08	2879.44
1017.24	2873.30
1017.40	2832.34
1017.56	2877.40
1017.72	2889.68
1017.89	3035.09
1018.05	2938.84
1018.21	2830.29
1018.37	2807.77
1018.53	2813.91
1018.70	2795.48
1018.86	2746.33
1019.02	2725.85
1019.18	2908.12
1019.34	2795.48
1019.50	2738.13
1019.67	2705.37
1019.83	2674.65
1019.99	2770.90
1020.15	2674.65
1020.31	2834.39
1020.48	2824.15
1020.64	2822.10
1020.80	2758.61
1020.96	2746.33
1021.12	2775.00
1021.28	2619.35
1021.44	2605.02
1021.61	2613.21
1021.77	2699.22
1021.93	2736.09
1022.09	2680.79
1022.25	2637.78
1022.41	2619.35
1022.58	2617.30
1022.74	2617.30
1022.90	2719.70
1023.06	2582.49
1023.22	2523.10
1023.38	2729.94
1023.54	2553.82
1023.70	2584.54
1023.87	2543.58
1024.03	2672.60
1024.19	2621.40
1024.35	2576.34
1024.51	2598.87
1024.67	2627.54
1024.83	2570.20
1024.99	2529.24
1025.16	2613.21
1025.32	2537.43
1025.48	2529.24
1025.64	2500.57
1025.80	2559.96
1025.96	2504.67
1026.12	2486.23
1026.28	2504.67
1026.44	2498.52
1026.60	2553.82
1026.77	2516.95
1026.93	2486.23
1027.09	2484.19
1027.25	2539.48
1027.41	2469.85
1027.57	2377.69
1027.73	2422.75
1027.89	2465.75
1028.05	2424.80
1028.21	2394.08
1028.37	2363.36
1028.53	2512.86
1028.70	2402.27
1028.86	2422.75
1029.02	2340.83
1029.18	2357.21
1029.34	2459.61
1029.50	2195.42
1029.66	2316.25
1029.82	2334.68
1029.98	2318.30
1030.14	2324.44
1030.30	2357.21
1030.46	2303.96
1030.62	2353.12
1030.78	2330.59
1030.94	2367.45
1031.10	2271.20
1031.26	2289.63
1031.42	2295.77
1031.58	2334.68
1031.74	2295.77
1031.90	2273.25
1032.07	2277.34
1032.23	2267.10
1032.39	2318.30
1032.55	2246.62
1032.71	2392.03
1032.87	2273.25
1033.03	2152.42
1033.19	2199.52
1033.35	2252.77
1033.51	2111.46
1033.67	2234.33
1033.83	2217.95
1033.99	2269.15
1034.15	2250.72
1034.31	2181.09
1034.47	2084.83
1034.63	2234.33
1034.79	2217.95
1034.95	2193.37
1035.11	2072.54
1035.27	2267.10
1035.43	2099.17
1035.59	2230.24
1035.75	2205.66
1035.91	2162.66
1036.07	2156.51
1036.23	2154.46
1036.39	2088.93
1036.54	2189.28
1036.70	2123.74
1036.86	2172.89
1037.02	2078.69
1037.18	2138.08
1037.34	2250.72
1037.50	2207.71
1037.66	2101.22
1037.82	2136.03
1037.98	2088.93
1038.14	2174.94
1038.30	2097.12
1038.46	2078.69
1038.62	2078.69
>>>>>End Processed Spectral Data<<<<<
